# from B. Hilbert, priv. comm. 
# Dated May 2024 (post-flight)
# Uses modA or modB  filters+DBS+QE+OTE (nrc_plus_ote)
# Units of transmission are PCE (photon to electron conversion efficiency)
# 
39982.9  0.000000e+00
39996.5  0.000000e+00
40010.0  9.668137e-06
40023.5  9.722519e-06
40037.0  9.668583e-06
40050.5  1.114419e-05
40064.0  1.174283e-05
40077.5  1.324054e-05
40091.0  1.474484e-05
40104.5  1.544600e-05
40118.1  1.547851e-05
40131.6  1.542306e-05
40145.1  1.509914e-05
40158.6  1.455617e-05
40172.1  1.533553e-05
40185.6  1.658040e-05
40199.1  1.720725e-05
40212.6  1.683399e-05
40226.2  1.608470e-05
40239.7  1.604474e-05
40253.2  1.775099e-05
40266.7  1.877242e-05
40280.2  1.697413e-05
40293.7  1.559218e-05
40307.2  1.624205e-05
40320.7  1.833958e-05
40334.3  2.040167e-05
40347.8  2.207567e-05
40361.3  2.310963e-05
40374.8  2.260935e-05
40388.3  2.271128e-05
40401.8  2.388364e-05
40415.3  2.576684e-05
40428.8  2.743172e-05
40442.4  3.069646e-05
40455.9  3.111363e-05
40469.4  2.863948e-05
40482.9  2.905450e-05
40496.4  3.206616e-05
40509.9  3.716279e-05
40523.4  4.295295e-05
40536.9  5.031301e-05
40550.5  5.665928e-05
40564.0  5.941525e-05
40577.5  6.095748e-05
40591.0  6.196264e-05
40604.5  6.305624e-05
40618.0  6.540487e-05
40631.5  7.089585e-05
40645.0  7.447817e-05
40658.6  7.361144e-05
40672.1  7.431399e-05
40685.6  7.989052e-05
40699.1  9.046046e-05
40712.6  1.025972e-04
40726.1  1.133656e-04
40739.6  1.230525e-04
40753.1  1.339309e-04
40766.7  1.470701e-04
40780.2  1.621174e-04
40793.7  1.777045e-04
40807.2  1.938496e-04
40820.7  2.145163e-04
40834.2  2.385179e-04
40847.7  2.641034e-04
40861.2  2.912422e-04
40874.8  3.208624e-04
40888.3  3.541813e-04
40901.8  3.907886e-04
40915.3  4.303635e-04
40928.8  4.737194e-04
40942.3  5.218192e-04
40955.8  5.752256e-04
40969.3  6.343944e-04
40982.8  6.997072e-04
40996.4  7.721564e-04
41009.9  8.519082e-04
41023.4  9.389232e-04
41036.9  1.033938e-03
41050.4  1.140584e-03
41063.9  1.265503e-03
41077.4  1.409537e-03
41090.9  1.570706e-03
41104.5  1.748906e-03
41118.0  1.946492e-03
41131.5  2.167923e-03
41145.0  2.417786e-03
41158.5  2.702156e-03
41172.0  3.027173e-03
41185.5  3.397120e-03
41199.0  3.817757e-03
41212.6  4.296109e-03
41226.1  4.841842e-03
41239.6  5.464382e-03
41253.1  6.176380e-03
41266.6  6.989022e-03
41280.1  7.919481e-03
41293.6  8.984553e-03
41307.1  1.021343e-02
41320.7  1.163194e-02
41334.2  1.326521e-02
41347.7  1.514916e-02
41361.2  1.732853e-02
41374.7  1.985189e-02
41388.2  2.277035e-02
41401.7  2.615279e-02
41415.2  3.006686e-02
41428.8  3.460004e-02
41442.3  3.985251e-02
41455.8  4.592512e-02
41469.3  5.293099e-02
41482.8  6.100324e-02
41496.3  7.026345e-02
41509.8  8.086940e-02
41523.3  9.292571e-02
41536.9  1.065366e-01
41550.4  1.218532e-01
41563.9  1.389415e-01
41577.4  1.578729e-01
41590.9  1.785343e-01
41604.4  2.007934e-01
41617.9  2.245954e-01
41631.4  2.497573e-01
41645.0  2.759497e-01
41658.5  3.026159e-01
41672.0  3.290116e-01
41685.5  3.550221e-01
41699.0  3.802516e-01
41712.5  4.043050e-01
41726.0  4.265052e-01
41739.5  4.460736e-01
41753.1  4.636572e-01
41766.6  4.790915e-01
41780.1  4.924405e-01
41793.6  5.036723e-01
41807.1  5.125649e-01
41820.6  5.199342e-01
41834.1  5.259176e-01
41847.6  5.307364e-01
41861.1  5.345549e-01
41874.7  5.373014e-01
41888.2  5.394925e-01
41901.7  5.412356e-01
41915.2  5.425600e-01
41928.7  5.435506e-01
41942.2  5.443408e-01
41955.7  5.449664e-01
41969.2  5.454791e-01
41982.8  5.459355e-01
41996.3  5.463692e-01
42009.8  5.467550e-01
42023.3  5.471344e-01
42036.8  5.475141e-01
42050.3  5.479205e-01
42063.8  5.482855e-01
42077.3  5.486418e-01
42090.9  5.490176e-01
42104.4  5.493758e-01
42117.9  5.496967e-01
42131.4  5.500133e-01
42144.9  5.503292e-01
42158.4  5.505998e-01
42171.9  5.508315e-01
42185.4  5.510570e-01
42199.0  5.512728e-01
42212.5  5.514152e-01
42226.0  5.515255e-01
42239.5  5.516151e-01
42253.0  5.516696e-01
42266.5  5.516468e-01
42280.0  5.516050e-01
42293.5  5.515412e-01
42307.1  5.514340e-01
42320.6  5.512488e-01
42334.1  5.510663e-01
42347.6  5.508520e-01
42361.1  5.505923e-01
42374.6  5.503033e-01
42388.1  5.500490e-01
42401.6  5.497623e-01
42415.2  5.494578e-01
42428.7  5.491414e-01
42442.2  5.488422e-01
42455.7  5.484937e-01
42469.2  5.481136e-01
42482.7  5.477115e-01
42496.2  5.473121e-01
42509.7  5.468238e-01
42523.3  5.463001e-01
42536.8  5.457484e-01
42550.3  5.451533e-01
42563.8  5.444337e-01
42577.3  5.436212e-01
42590.8  5.427122e-01
42604.3  5.416736e-01
42617.8  5.404407e-01
42631.4  5.389684e-01
42644.9  5.372448e-01
42658.4  5.351981e-01
42671.9  5.327636e-01
42685.4  5.297111e-01
42698.9  5.260424e-01
42712.4  5.218985e-01
42725.9  5.174806e-01
42739.5  5.134275e-01
42753.0  5.113224e-01
42766.5  5.117309e-01
42780.0  5.148336e-01
42793.5  5.207546e-01
42807.0  5.273886e-01
42820.5  5.328372e-01
42834.0  5.366992e-01
42847.5  5.387832e-01
42861.1  5.392544e-01
42874.6  5.392915e-01
42888.1  5.391156e-01
42901.6  5.389042e-01
42915.1  5.386424e-01
42928.6  5.383845e-01
42942.1  5.381633e-01
42955.6  5.379356e-01
42969.2  5.376751e-01
42982.7  5.374549e-01
42996.2  5.372373e-01
43009.7  5.370317e-01
43023.2  5.368188e-01
43036.7  5.366105e-01
43050.2  5.364551e-01
43063.7  5.362937e-01
43077.3  5.361277e-01
43090.8  5.360514e-01
43104.3  5.359777e-01
43117.8  5.359154e-01
43131.3  5.358658e-01
43144.8  5.358371e-01
43158.3  5.358177e-01
43171.8  5.358233e-01
43185.4  5.357772e-01
43198.9  5.357748e-01
43212.4  5.357977e-01
43225.9  5.357750e-01
43239.4  5.357260e-01
43252.9  5.357285e-01
43266.4  5.356676e-01
43279.9  5.355705e-01
43293.5  5.354640e-01
43307.0  5.353351e-01
43320.5  5.351942e-01
43334.0  5.349750e-01
43347.5  5.347097e-01
43361.0  5.344566e-01
43374.5  5.341134e-01
43388.0  5.337096e-01
43401.6  5.332849e-01
43415.1  5.327999e-01
43428.6  5.322557e-01
43442.1  5.316825e-01
43455.6  5.310458e-01
43469.1  5.303826e-01
43482.6  5.297021e-01
43496.1  5.289418e-01
43509.7  5.281887e-01
43523.2  5.274537e-01
43536.7  5.266928e-01
43550.2  5.259285e-01
43563.7  5.252032e-01
43577.2  5.244969e-01
43590.7  5.238033e-01
43604.2  5.230904e-01
43617.8  5.224244e-01
43631.3  5.217452e-01
43644.8  5.210203e-01
43658.3  5.202263e-01
43671.8  5.193348e-01
43685.3  5.182673e-01
43698.8  5.169923e-01
43712.3  5.153902e-01
43725.8  5.133341e-01
43739.4  5.108036e-01
43752.9  5.077384e-01
43766.4  5.037614e-01
43779.9  4.988768e-01
43793.4  4.931153e-01
43806.9  4.864215e-01
43820.4  4.780200e-01
43833.9  4.684624e-01
43847.5  4.577385e-01
43861.0  4.455533e-01
43874.5  4.314988e-01
43888.0  4.162688e-01
43901.5  3.999495e-01
43915.0  3.819594e-01
43928.5  3.626985e-01
43942.0  3.427457e-01
43955.6  3.223040e-01
43969.1  3.006046e-01
43982.6  2.789700e-01
43996.1  2.575987e-01
44009.6  2.364531e-01
44023.1  2.155932e-01
44036.6  1.956931e-01
44050.1  1.768782e-01
44063.7  1.589486e-01
44077.2  1.422825e-01
44090.7  1.270016e-01
44104.2  1.130456e-01
44117.7  1.003212e-01
44131.2  8.890801e-02
44144.7  7.869898e-02
44158.2  6.959492e-02
44171.8  6.152077e-02
44185.3  5.437787e-02
44198.8  4.806783e-02
44212.3  4.252240e-02
44225.8  3.763756e-02
44239.3  3.333592e-02
44252.8  2.955831e-02
44266.3  2.624613e-02
44279.9  2.333067e-02
44293.4  2.076231e-02
44306.9  1.851055e-02
44320.4  1.652340e-02
44333.9  1.476577e-02
44347.4  1.321223e-02
44360.9  1.184043e-02
44374.4  1.062493e-02
44388.0  9.548305e-03
44401.5  8.596550e-03
44415.0  7.746638e-03
44428.5  6.987605e-03
44442.0  6.312847e-03
44455.5  5.711456e-03
44469.0  5.174154e-03
44482.5  4.694711e-03
44496.1  4.267330e-03
44509.6  3.880951e-03
44523.1  3.531431e-03
44536.6  3.216868e-03
44550.1  2.933614e-03
44563.6  2.677300e-03
44577.1  2.445054e-03
44590.6  2.237516e-03
44604.1  2.050970e-03
44617.7  1.883174e-03
44631.2  1.729524e-03
44644.7  1.587866e-03
44658.2  1.458071e-03
44671.7  1.341331e-03
44685.2  1.237547e-03
44698.7  1.143786e-03
44712.2  1.058839e-03
44725.8  9.799678e-04
44739.3  9.072818e-04
44752.8  8.404459e-04
44766.3  7.801781e-04
44779.8  7.243831e-04
44793.3  6.726313e-04
44806.8  6.242765e-04
44820.3  5.796240e-04
44833.9  5.386137e-04
44847.4  5.013252e-04
44860.9  4.688493e-04
44874.4  4.388393e-04
44887.9  4.108978e-04
44901.4  3.828623e-04
44914.9  3.564686e-04
44928.4  3.315518e-04
44942.0  3.073785e-04
44955.5  2.850773e-04
44969.0  2.656450e-04
44982.5  2.510415e-04
44996.0  2.379974e-04
45009.5  2.248157e-04
45023.0  2.106905e-04
45036.5  2.002622e-04
45050.1  1.925162e-04
45063.6  1.870887e-04
45077.1  1.803353e-04
45090.6  1.728519e-04
45104.1  1.648903e-04
45117.6  1.567720e-04
45131.1  1.489818e-04
45144.6  1.415658e-04
45158.2  1.347450e-04
45171.7  1.279399e-04
45185.2  1.218494e-04
45198.7  1.171247e-04
45212.2  1.134567e-04
45225.7  1.083535e-04
45239.2  1.009407e-04
45252.7  9.146551e-05
45266.3  8.317663e-05
45279.8  7.615211e-05
45293.3  6.922698e-05
45306.8  6.283627e-05
45320.3  5.723854e-05
45333.8  5.097893e-05
45347.3  4.304895e-05
45360.8  3.530384e-05
45374.4  3.020091e-05
45387.9  2.878433e-05
45401.4  2.844280e-05
45414.9  2.771471e-05
45428.4  2.728120e-05
45441.9  2.692345e-05
45455.4  2.640214e-05
45468.9  2.298896e-05
45482.5  2.124307e-05
45496.0  1.893205e-05
45509.5  0.000000e+00
45523.0  0.000000e+00
