# from B. Hilbert, priv. comm. 
# Dated May 2024 (post-flight)
# Uses modA or modB  filters+DBS+QE+OTE (nrc_plus_ote)
# Units of transmission are PCE (photon to electron conversion efficiency)
# 
7475.5  0.000000e+00
7485.5  0.000000e+00
7495.5  3.532419e-07
7505.5  4.245238e-07
7515.5  4.560910e-07
7525.5  4.200018e-07
7535.5  4.115195e-07
7545.5  4.851359e-07
7555.5  3.848034e-07
7565.5  3.675154e-07
7575.5  3.843922e-07
7585.5  4.354500e-07
7595.5  5.107307e-07
7605.5  5.297902e-07
7615.5  4.978279e-07
7625.5  5.069753e-07
7635.5  5.609614e-07
7645.5  6.091052e-07
7655.5  6.131029e-07
7665.5  5.858859e-07
7675.5  6.918471e-07
7685.5  8.236521e-07
7695.5  1.157045e-06
7705.5  1.457147e-06
7715.5  2.193074e-06
7725.5  3.219005e-06
7735.5  5.072691e-06
7745.5  8.034745e-06
7755.5  1.217971e-05
7765.5  1.799368e-05
7775.5  2.589276e-05
7785.5  3.659143e-05
7795.5  4.981103e-05
7805.5  6.966293e-05
7815.5  9.870999e-05
7825.5  1.469824e-04
7835.5  2.395256e-04
7845.5  4.052630e-04
7855.5  7.728116e-04
7865.5  1.654466e-03
7875.5  3.680450e-03
7885.5  8.473055e-03
7895.5  1.938179e-02
7905.5  3.902731e-02
7915.5  6.928622e-02
7925.5  1.072806e-01
7935.5  1.496330e-01
7945.5  1.853910e-01
7955.5  2.126059e-01
7965.5  2.322833e-01
7975.5  2.425435e-01
7985.5  2.475255e-01
7995.5  2.493349e-01
8005.5  2.503788e-01
8015.5  2.493473e-01
8025.5  2.460355e-01
8035.5  2.426904e-01
8045.5  2.396026e-01
8055.5  2.381839e-01
8065.5  2.363441e-01
8075.5  2.342299e-01
8085.5  2.324853e-01
8095.5  2.330169e-01
8105.5  2.350846e-01
8115.5  2.388678e-01
8125.5  2.432447e-01
8135.5  2.466899e-01
8145.5  2.512765e-01
8155.5  2.530087e-01
8165.5  2.553400e-01
8175.5  2.575426e-01
8185.5  2.595558e-01
8195.5  2.604910e-01
8205.5  2.615291e-01
8215.5  2.627257e-01
8225.5  2.610195e-01
8235.5  2.599783e-01
8245.5  2.583902e-01
8255.5  2.557854e-01
8265.5  2.542402e-01
8275.5  2.528563e-01
8285.5  2.527496e-01
8295.5  2.531427e-01
8305.5  2.521716e-01
8315.5  2.527541e-01
8325.5  2.529436e-01
8335.5  2.528997e-01
8345.5  2.526705e-01
8355.5  2.555982e-01
8365.5  2.583724e-01
8375.5  2.615359e-01
8385.5  2.640218e-01
8395.5  2.653294e-01
8405.5  2.666627e-01
8415.5  2.684104e-01
8425.5  2.681778e-01
8435.5  2.673627e-01
8445.5  2.667475e-01
8455.5  2.639993e-01
8465.5  2.625040e-01
8475.5  2.601044e-01
8485.5  2.587166e-01
8495.5  2.587499e-01
8505.5  2.594660e-01
8515.5  2.613913e-01
8525.5  2.619386e-01
8535.5  2.619546e-01
8545.5  2.632618e-01
8555.5  2.627015e-01
8565.5  2.645252e-01
8575.5  2.661753e-01
8585.5  2.685439e-01
8595.5  2.701748e-01
8605.5  2.740444e-01
8615.5  2.758437e-01
8625.5  2.754673e-01
8635.5  2.743545e-01
8645.5  2.748580e-01
8655.5  2.755833e-01
8665.5  2.789326e-01
8675.5  2.763483e-01
8685.5  2.741269e-01
8695.5  2.743798e-01
8705.5  2.742830e-01
8715.5  2.701886e-01
8725.5  2.719988e-01
8735.5  2.716143e-01
8745.5  2.724515e-01
8755.5  2.699133e-01
8765.5  2.702342e-01
8775.5  2.744120e-01
8785.5  2.746881e-01
8795.5  2.736670e-01
8805.5  2.778204e-01
8815.5  2.755274e-01
8825.5  2.789806e-01
8835.5  2.763253e-01
8845.5  2.805855e-01
8855.5  2.765188e-01
8865.5  2.737706e-01
8875.5  2.829609e-01
8885.5  2.863908e-01
8895.5  2.839348e-01
8905.5  2.773135e-01
8915.5  2.803583e-01
8925.5  2.789622e-01
8935.5  2.780703e-01
8945.5  2.780647e-01
8955.5  2.756620e-01
8965.5  2.702867e-01
8975.5  2.742762e-01
8985.5  2.746532e-01
8995.5  2.735403e-01
9005.5  2.751218e-01
9015.5  2.755288e-01
9025.5  2.768010e-01
9035.5  2.761135e-01
9045.5  2.766001e-01
9055.5  2.793971e-01
9065.5  2.792202e-01
9075.5  2.786471e-01
9085.5  2.809318e-01
9095.5  2.814687e-01
9105.5  2.819069e-01
9115.5  2.827586e-01
9125.5  2.835914e-01
9135.5  2.838583e-01
9145.5  2.851095e-01
9155.5  2.845722e-01
9165.5  2.865126e-01
9175.5  2.852109e-01
9185.5  2.867192e-01
9195.5  2.864134e-01
9205.5  2.857563e-01
9215.5  2.856078e-01
9225.5  2.857314e-01
9235.5  2.859637e-01
9245.5  2.852372e-01
9255.5  2.863805e-01
9265.5  2.861616e-01
9275.5  2.856610e-01
9285.5  2.859912e-01
9295.5  2.861545e-01
9305.5  2.862789e-01
9315.5  2.863931e-01
9325.5  2.864618e-01
9335.5  2.859082e-01
9345.5  2.860987e-01
9355.5  2.853691e-01
9365.5  2.852509e-01
9375.5  2.844920e-01
9385.5  2.829892e-01
9395.5  2.822396e-01
9405.5  2.809254e-01
9415.5  2.791170e-01
9425.5  2.787630e-01
9435.5  2.788860e-01
9445.5  2.790898e-01
9455.5  2.797785e-01
9465.5  2.799121e-01
9475.5  2.800267e-01
9485.5  2.812689e-01
9495.5  2.821737e-01
9505.5  2.818635e-01
9515.5  2.843697e-01
9525.5  2.829146e-01
9535.5  2.833809e-01
9545.5  2.833261e-01
9555.5  2.829390e-01
9565.5  2.820948e-01
9575.5  2.810520e-01
9585.5  2.827838e-01
9595.5  2.818704e-01
9605.5  2.825567e-01
9615.5  2.830994e-01
9625.5  2.834267e-01
9635.5  2.835604e-01
9645.5  2.843064e-01
9655.5  2.837261e-01
9665.5  2.831794e-01
9675.5  2.840760e-01
9685.5  2.839514e-01
9695.5  2.839557e-01
9705.5  2.841027e-01
9715.5  2.841752e-01
9725.5  2.841713e-01
9735.5  2.841743e-01
9745.5  2.818091e-01
9755.5  2.835757e-01
9765.5  2.817435e-01
9775.5  2.813428e-01
9785.5  2.820813e-01
9795.5  2.810834e-01
9805.5  2.799698e-01
9815.5  2.822861e-01
9825.5  2.817938e-01
9835.5  2.819072e-01
9845.5  2.820380e-01
9855.5  2.828434e-01
9865.5  2.818282e-01
9875.5  2.820966e-01
9885.5  2.831164e-01
9895.5  2.828013e-01
9905.5  2.835181e-01
9915.5  2.820825e-01
9925.5  2.824614e-01
9935.5  2.812413e-01
9945.5  2.815217e-01
9955.5  2.811509e-01
9965.5  2.806060e-01
9975.5  2.784558e-01
9985.5  2.728337e-01
9995.5  2.642987e-01
10005.5  2.477007e-01
10015.5  2.274944e-01
10025.5  2.002510e-01
10035.5  1.696143e-01
10045.5  1.471028e-01
10055.5  1.220557e-01
10065.5  1.023081e-01
10075.5  8.292185e-02
10085.5  7.033023e-02
10095.5  5.804578e-02
10105.5  4.919396e-02
10115.5  4.264969e-02
10125.5  3.614138e-02
10135.5  3.072230e-02
10145.5  2.726379e-02
10155.5  2.360164e-02
10165.5  2.000596e-02
10175.5  1.669305e-02
10185.5  1.333830e-02
10195.5  1.024578e-02
10205.5  7.840208e-03
10215.5  5.851395e-03
10225.5  4.062923e-03
10235.5  3.209790e-03
10245.5  2.280256e-03
10255.5  1.667527e-03
10265.5  1.177132e-03
10275.5  8.814066e-04
10285.5  6.533999e-04
10295.5  4.651219e-04
10305.5  3.815838e-04
10315.5  2.829587e-04
10325.5  2.179416e-04
10335.5  1.671255e-04
10345.5  1.320030e-04
10355.5  1.012940e-04
10365.5  8.189713e-05
10375.5  6.708528e-05
10385.5  5.196849e-05
10395.5  4.254845e-05
10405.5  3.452081e-05
10415.5  2.824450e-05
10425.5  2.318417e-05
10435.5  1.891855e-05
10445.5  1.621638e-05
10455.5  1.289086e-05
10465.5  1.096487e-05
10475.5  9.451184e-06
10485.5  7.469271e-06
10495.5  7.551114e-06
10505.5  6.104482e-06
10515.5  5.218660e-06
10525.5  4.411474e-06
10535.5  3.954476e-06
10545.5  2.330127e-06
10555.5  3.659095e-06
10565.5  3.775377e-06
10575.5  2.692070e-06
10585.5  2.785559e-06
10595.5  2.215130e-06
10605.5  1.978754e-06
10615.5  2.353793e-06
10625.5  1.528466e-06
10635.5  1.151801e-06
10645.5  1.574912e-06
10655.5  1.374810e-06
10665.5  2.304061e-06
10675.5  9.595904e-07
10685.5  2.489561e-06
10695.5  1.890370e-06
10705.5  1.669763e-06
10715.5  0.000000e+00
10725.5  0.000000e+00
