# from B. Hilbert, priv. comm. 
# Dated May 2024 (post-flight)
# Uses modA or modB  filters+DBS+QE+OTE (nrc_plus_ote)
# Units of transmission are PCE (photon to electron conversion efficiency)
# 
5481.5  0.000000e+00
5491.5  0.000000e+00
5501.5  1.068914e-09
5511.5  1.577646e-09
5521.5  2.080768e-09
5531.5  2.730102e-09
5541.5  2.910529e-09
5551.5  3.272434e-09
5561.5  3.480526e-09
5571.5  3.785013e-09
5581.5  3.110102e-09
5591.5  1.856576e-09
5601.5  1.810876e-09
5611.5  2.171515e-09
5621.5  2.109598e-09
5631.5  2.200351e-09
5641.5  2.662196e-09
5651.5  3.627768e-09
5661.5  5.163355e-09
5671.5  6.043375e-09
5681.5  7.947395e-09
5691.5  7.877250e-09
5701.5  9.568433e-09
5711.5  9.755562e-09
5721.5  1.132563e-08
5731.5  9.986508e-09
5741.5  9.321616e-09
5751.5  8.802136e-09
5761.5  1.005041e-08
5771.5  1.104870e-08
5781.5  1.113160e-08
5791.5  1.156495e-08
5801.5  1.352220e-08
5811.5  1.670658e-08
5821.5  1.934663e-08
5831.5  2.196374e-08
5841.5  2.279457e-08
5851.5  2.364182e-08
5861.5  2.429623e-08
5871.5  3.122862e-08
5881.5  3.739710e-08
5891.5  4.228634e-08
5901.5  4.806087e-08
5911.5  5.265304e-08
5921.5  6.160671e-08
5931.5  6.680655e-08
5941.5  8.388258e-08
5951.5  9.599585e-08
5961.5  1.139297e-07
5971.5  1.747827e-07
5981.5  4.013457e-07
5991.5  1.392691e-06
6001.5  4.810003e-06
6011.5  1.804756e-05
6021.5  8.755654e-05
6031.5  3.742073e-04
6041.5  1.491596e-03
6051.5  4.927007e-03
6061.5  1.239920e-02
6071.5  2.472180e-02
6081.5  4.091931e-02
6091.5  5.836621e-02
6101.5  7.430994e-02
6111.5  8.704494e-02
6121.5  9.648545e-02
6131.5  1.033238e-01
6141.5  1.087576e-01
6151.5  1.136050e-01
6161.5  1.185057e-01
6171.5  1.236277e-01
6181.5  1.287435e-01
6191.5  1.337335e-01
6201.5  1.385709e-01
6211.5  1.424652e-01
6221.5  1.454438e-01
6231.5  1.473514e-01
6241.5  1.496541e-01
6251.5  1.518258e-01
6261.5  1.533204e-01
6271.5  1.544135e-01
6281.5  1.551534e-01
6291.5  1.556446e-01
6301.5  1.557734e-01
6311.5  1.558054e-01
6321.5  1.562497e-01
6331.5  1.576443e-01
6341.5  1.600404e-01
6351.5  1.630688e-01
6361.5  1.661922e-01
6371.5  1.690327e-01
6381.5  1.712876e-01
6391.5  1.731325e-01
6401.5  1.747954e-01
6411.5  1.766099e-01
6421.5  1.784178e-01
6431.5  1.801254e-01
6441.5  1.814991e-01
6451.5  1.824533e-01
6461.5  1.831551e-01
6471.5  1.839842e-01
6481.5  1.852469e-01
6491.5  1.868793e-01
6501.5  1.885334e-01
6511.5  1.900527e-01
6521.5  1.911935e-01
6531.5  1.917146e-01
6541.5  1.918236e-01
6551.5  1.916619e-01
6561.5  1.913639e-01
6571.5  1.909267e-01
6581.5  1.906692e-01
6591.5  1.908732e-01
6601.5  1.915556e-01
6611.5  1.928289e-01
6621.5  1.948069e-01
6631.5  1.974125e-01
6641.5  2.002953e-01
6651.5  2.031149e-01
6661.5  2.053326e-01
6671.5  2.065627e-01
6681.5  2.069181e-01
6691.5  2.069192e-01
6701.5  2.068076e-01
6711.5  2.065128e-01
6721.5  2.060677e-01
6731.5  2.057883e-01
6741.5  2.057074e-01
6751.5  2.058312e-01
6761.5  2.062601e-01
6771.5  2.070311e-01
6781.5  2.084077e-01
6791.5  2.103132e-01
6801.5  2.126649e-01
6811.5  2.150964e-01
6821.5  2.171055e-01
6831.5  2.185936e-01
6841.5  2.199084e-01
6851.5  2.211271e-01
6861.5  2.223638e-01
6871.5  2.236092e-01
6881.5  2.251100e-01
6891.5  2.268320e-01
6901.5  2.282721e-01
6911.5  2.287511e-01
6921.5  2.280282e-01
6931.5  2.258794e-01
6941.5  2.226639e-01
6951.5  2.193304e-01
6961.5  2.167473e-01
6971.5  2.158811e-01
6981.5  2.169221e-01
6991.5  2.198680e-01
7001.5  2.240563e-01
7011.5  2.287461e-01
7021.5  2.329141e-01
7031.5  2.360821e-01
7041.5  2.380118e-01
7051.5  2.391667e-01
7061.5  2.400387e-01
7071.5  2.411337e-01
7081.5  2.425494e-01
7091.5  2.441566e-01
7101.5  2.449543e-01
7111.5  2.444313e-01
7121.5  2.425025e-01
7131.5  2.399731e-01
7141.5  2.383004e-01
7151.5  2.378614e-01
7161.5  2.386516e-01
7171.5  2.391595e-01
7181.5  2.384392e-01
7191.5  2.363293e-01
7201.5  2.336936e-01
7211.5  2.321274e-01
7221.5  2.330963e-01
7231.5  2.370696e-01
7241.5  2.432455e-01
7251.5  2.502780e-01
7261.5  2.571215e-01
7271.5  2.626966e-01
7281.5  2.667740e-01
7291.5  2.692932e-01
7301.5  2.706851e-01
7311.5  2.706477e-01
7321.5  2.694714e-01
7331.5  2.673908e-01
7341.5  2.645954e-01
7351.5  2.614623e-01
7361.5  2.588794e-01
7371.5  2.574420e-01
7381.5  2.573621e-01
7391.5  2.581597e-01
7401.5  2.592972e-01
7411.5  2.603748e-01
7421.5  2.614853e-01
7431.5  2.633827e-01
7441.5  2.664785e-01
7451.5  2.709278e-01
7461.5  2.757967e-01
7471.5  2.806233e-01
7481.5  2.843051e-01
7491.5  2.870787e-01
7501.5  2.887052e-01
7511.5  2.896280e-01
7521.5  2.895734e-01
7531.5  2.880014e-01
7541.5  2.847679e-01
7551.5  2.800768e-01
7561.5  2.750896e-01
7571.5  2.711009e-01
7581.5  2.689188e-01
7591.5  2.684785e-01
7601.5  2.690789e-01
7611.5  2.702628e-01
7621.5  2.719083e-01
7631.5  2.745715e-01
7641.5  2.787415e-01
7651.5  2.845619e-01
7661.5  2.906046e-01
7671.5  2.958322e-01
7681.5  2.985653e-01
7691.5  2.990826e-01
7701.5  2.973462e-01
7711.5  2.947302e-01
7721.5  2.912945e-01
7731.5  2.870923e-01
7741.5  2.818002e-01
7751.5  2.755064e-01
7761.5  2.679933e-01
7771.5  2.571004e-01
7781.5  2.409805e-01
7791.5  2.179801e-01
7801.5  1.894326e-01
7811.5  1.574150e-01
7821.5  1.252212e-01
7831.5  9.535749e-02
7841.5  6.976336e-02
7851.5  4.918007e-02
7861.5  3.356585e-02
7871.5  2.242174e-02
7881.5  1.490265e-02
7891.5  1.002344e-02
7901.5  6.922870e-03
7911.5  4.853875e-03
7921.5  3.486195e-03
7931.5  2.479845e-03
7941.5  1.780078e-03
7951.5  1.294459e-03
7961.5  9.499322e-04
7971.5  7.023712e-04
7981.5  5.214774e-04
7991.5  3.909476e-04
8001.5  2.961144e-04
8011.5  2.255521e-04
8021.5  1.724297e-04
8031.5  1.329497e-04
8041.5  1.037411e-04
8051.5  8.221022e-05
8061.5  6.597731e-05
8071.5  5.358423e-05
8081.5  4.391764e-05
8091.5  3.634274e-05
8101.5  3.038337e-05
8111.5  2.549228e-05
8121.5  2.171964e-05
8131.5  1.866553e-05
8141.5  1.635311e-05
8151.5  1.453178e-05
8161.5  1.321976e-05
8171.5  1.206027e-05
8181.5  1.107386e-05
8191.5  1.012208e-05
8201.5  9.419053e-06
8211.5  8.829665e-06
8221.5  8.407708e-06
8231.5  7.982966e-06
8241.5  7.644351e-06
8251.5  7.269659e-06
8261.5  7.016371e-06
8271.5  6.826097e-06
8281.5  6.735269e-06
8291.5  6.586474e-06
8301.5  6.323208e-06
8311.5  6.049574e-06
8321.5  5.907438e-06
8331.5  5.960519e-06
8341.5  6.026558e-06
8351.5  5.884824e-06
8361.5  5.469069e-06
8371.5  4.937907e-06
8381.5  4.448086e-06
8391.5  4.246433e-06
8401.5  4.351950e-06
8411.5  4.692788e-06
8421.5  5.006036e-06
8431.5  5.057571e-06
8441.5  4.956833e-06
8451.5  4.581906e-06
8461.5  4.219290e-06
8471.5  3.729947e-06
8481.5  3.365991e-06
8491.5  3.098788e-06
8501.5  0.000000e+00
8511.5  0.000000e+00
