# from B. Hilbert, priv. comm. 
# Dated May 2024 (post-flight)
# Uses modA or modB  filters+DBS+QE+OTE (nrc_plus_ote)
# Units of transmission are PCE (photon to electron conversion efficiency)
# 
12487.9  0.000000e+00
12497.9  0.000000e+00
12507.9  6.024104e-06
12517.9  6.828767e-06
12527.9  7.264295e-06
12537.9  7.732183e-06
12547.9  8.695381e-06
12557.9  9.411476e-06
12567.9  1.015839e-05
12577.9  1.088366e-05
12587.9  1.196626e-05
12597.9  1.295518e-05
12607.9  1.440987e-05
12617.9  1.543976e-05
12627.9  1.745149e-05
12637.9  1.911730e-05
12647.9  2.097643e-05
12657.9  2.335780e-05
12667.9  2.573147e-05
12677.9  2.862846e-05
12687.9  3.160970e-05
12697.9  3.508003e-05
12707.9  3.978973e-05
12717.9  4.431458e-05
12727.9  5.022106e-05
12737.9  5.635775e-05
12747.9  6.400460e-05
12757.9  7.281207e-05
12767.9  8.317682e-05
12777.9  9.465900e-05
12787.9  1.082955e-04
12797.9  1.240438e-04
12807.9  1.422237e-04
12817.9  1.634754e-04
12827.9  1.875310e-04
12837.9  2.151578e-04
12847.9  2.466633e-04
12857.9  2.837243e-04
12867.9  3.283325e-04
12877.9  3.757170e-04
12887.9  4.361985e-04
12897.9  5.066278e-04
12907.9  5.857110e-04
12917.9  6.781936e-04
12927.9  7.996975e-04
12937.9  9.319837e-04
12947.9  1.089089e-03
12957.9  1.298170e-03
12967.9  1.534739e-03
12977.9  1.826644e-03
12987.9  2.200376e-03
12997.9  2.647414e-03
13007.9  3.195986e-03
13017.9  3.889317e-03
13027.9  4.743088e-03
13037.9  5.757222e-03
13047.9  6.976221e-03
13057.9  8.376732e-03
13067.9  9.680161e-03
13077.9  1.058921e-02
13087.9  1.174971e-02
13097.9  1.277995e-02
13107.9  1.400141e-02
13117.9  1.554646e-02
13127.9  1.743186e-02
13137.9  1.944473e-02
13147.9  2.221760e-02
13157.9  2.458179e-02
13167.9  2.819037e-02
13177.9  3.197366e-02
13187.9  3.734729e-02
13197.9  4.317762e-02
13207.9  5.125824e-02
13217.9  6.006322e-02
13227.9  7.117232e-02
13237.9  8.291780e-02
13247.9  9.823771e-02
13257.9  1.133264e-01
13267.9  1.320489e-01
13277.9  1.523733e-01
13287.9  1.758196e-01
13297.9  2.008522e-01
13307.9  2.279403e-01
13317.9  2.545256e-01
13327.9  2.811585e-01
13337.9  3.071802e-01
13347.9  3.298620e-01
13357.9  3.500959e-01
13367.9  3.671454e-01
13377.9  3.814549e-01
13387.9  3.920758e-01
13397.9  4.000147e-01
13407.9  4.052842e-01
13417.9  4.088986e-01
13427.9  4.115558e-01
13437.9  4.153581e-01
13447.9  4.146594e-01
13457.9  4.160577e-01
13467.9  4.183912e-01
13477.9  4.189857e-01
13487.9  4.204581e-01
13497.9  4.214381e-01
13507.9  4.230832e-01
13517.9  4.236095e-01
13527.9  4.240731e-01
13537.9  4.257281e-01
13547.9  4.249963e-01
13557.9  4.254183e-01
13567.9  4.250917e-01
13577.9  4.246678e-01
13587.9  4.247047e-01
13597.9  4.243835e-01
13607.9  4.238429e-01
13617.9  4.233885e-01
13627.9  4.223603e-01
13637.9  4.228553e-01
13647.9  4.235429e-01
13657.9  4.237319e-01
13667.9  4.225966e-01
13677.9  4.224931e-01
13687.9  4.237774e-01
13697.9  4.232756e-01
13707.9  4.245257e-01
13717.9  4.245460e-01
13727.9  4.232869e-01
13737.9  4.229315e-01
13747.9  4.227738e-01
13757.9  4.230464e-01
13767.9  4.228400e-01
13777.9  4.230403e-01
13787.9  4.226193e-01
13797.9  4.221477e-01
13807.9  4.212732e-01
13817.9  4.208397e-01
13827.9  4.222364e-01
13837.9  4.214647e-01
13847.9  4.207399e-01
13857.9  4.210059e-01
13867.9  4.210839e-01
13877.9  4.197746e-01
13887.9  4.202860e-01
13897.9  4.206228e-01
13907.9  4.210116e-01
13917.9  4.204014e-01
13927.9  4.217065e-01
13937.9  4.214241e-01
13947.9  4.223468e-01
13957.9  4.228608e-01
13967.9  4.230571e-01
13977.9  4.240247e-01
13987.9  4.239646e-01
13997.9  4.240555e-01
14007.9  4.258687e-01
14017.9  4.263272e-01
14027.9  4.270266e-01
14037.9  4.281076e-01
14047.9  4.285364e-01
14057.9  4.298299e-01
14067.9  4.300463e-01
14077.9  4.300693e-01
14087.9  4.315017e-01
14097.9  4.323539e-01
14107.9  4.316884e-01
14117.9  4.336832e-01
14127.9  4.346413e-01
14137.9  4.360207e-01
14147.9  4.361656e-01
14157.9  4.372912e-01
14167.9  4.387729e-01
14177.9  4.383915e-01
14187.9  4.405666e-01
14197.9  4.408368e-01
14207.9  4.409814e-01
14217.9  4.422341e-01
14227.9  4.425604e-01
14237.9  4.439679e-01
14247.9  4.443536e-01
14257.9  4.436442e-01
14267.9  4.452269e-01
14277.9  4.455190e-01
14287.9  4.457016e-01
14297.9  4.477800e-01
14307.9  4.476218e-01
14317.9  4.483752e-01
14327.9  4.476010e-01
14337.9  4.482084e-01
14347.9  4.493110e-01
14357.9  4.489428e-01
14367.9  4.490923e-01
14377.9  4.505128e-01
14387.9  4.503725e-01
14397.9  4.503164e-01
14407.9  4.517364e-01
14417.9  4.506380e-01
14427.9  4.514508e-01
14437.9  4.522550e-01
14447.9  4.530016e-01
14457.9  4.522257e-01
14467.9  4.527495e-01
14477.9  4.525189e-01
14487.9  4.543984e-01
14497.9  4.533936e-01
14507.9  4.534371e-01
14517.9  4.543876e-01
14527.9  4.543665e-01
14537.9  4.528178e-01
14547.9  4.519705e-01
14557.9  4.530426e-01
14567.9  4.518768e-01
14577.9  4.518408e-01
14587.9  4.525824e-01
14597.9  4.518302e-01
14607.9  4.501107e-01
14617.9  4.490246e-01
14627.9  4.484412e-01
14637.9  4.479784e-01
14647.9  4.478334e-01
14657.9  4.479511e-01
14667.9  4.460165e-01
14677.9  4.459413e-01
14687.9  4.460948e-01
14697.9  4.450947e-01
14707.9  4.435607e-01
14717.9  4.432859e-01
14727.9  4.438467e-01
14737.9  4.422740e-01
14747.9  4.439043e-01
14757.9  4.427180e-01
14767.9  4.434037e-01
14777.9  4.436072e-01
14787.9  4.438571e-01
14797.9  4.441933e-01
14807.9  4.437611e-01
14817.9  4.445133e-01
14827.9  4.453593e-01
14837.9  4.449136e-01
14847.9  4.464172e-01
14857.9  4.487322e-01
14867.9  4.477496e-01
14877.9  4.488905e-01
14887.9  4.494498e-01
14897.9  4.500801e-01
14907.9  4.508869e-01
14917.9  4.528757e-01
14927.9  4.532605e-01
14937.9  4.537814e-01
14947.9  4.542387e-01
14957.9  4.555764e-01
14967.9  4.568839e-01
14977.9  4.562306e-01
14987.9  4.572714e-01
14997.9  4.600208e-01
15007.9  4.605883e-01
15017.9  4.606126e-01
15027.9  4.609771e-01
15037.9  4.627234e-01
15047.9  4.632539e-01
15057.9  4.635018e-01
15067.9  4.651388e-01
15077.9  4.652418e-01
15087.9  4.667089e-01
15097.9  4.680107e-01
15107.9  4.684608e-01
15117.9  4.680961e-01
15127.9  4.697922e-01
15137.9  4.705075e-01
15147.9  4.695382e-01
15157.9  4.705330e-01
15167.9  4.708628e-01
15177.9  4.724716e-01
15187.9  4.703702e-01
15197.9  4.716799e-01
15207.9  4.709268e-01
15217.9  4.702579e-01
15227.9  4.727354e-01
15237.9  4.710731e-01
15247.9  4.701206e-01
15257.9  4.710056e-01
15267.9  4.709908e-01
15277.9  4.706127e-01
15287.9  4.700327e-01
15297.9  4.685312e-01
15307.9  4.702538e-01
15317.9  4.688574e-01
15327.9  4.684666e-01
15337.9  4.672575e-01
15347.9  4.679570e-01
15357.9  4.680607e-01
15367.9  4.672511e-01
15377.9  4.686058e-01
15387.9  4.677735e-01
15397.9  4.668403e-01
15407.9  4.667859e-01
15417.9  4.669333e-01
15427.9  4.668154e-01
15437.9  4.675126e-01
15447.9  4.665497e-01
15457.9  4.668389e-01
15467.9  4.667516e-01
15477.9  4.661964e-01
15487.9  4.676037e-01
15497.9  4.652041e-01
15507.9  4.664709e-01
15517.9  4.646076e-01
15527.9  4.662291e-01
15537.9  4.651399e-01
15547.9  4.663707e-01
15557.9  4.645753e-01
15567.9  4.639548e-01
15577.9  4.640180e-01
15587.9  4.642861e-01
15597.9  4.645461e-01
15607.9  4.639517e-01
15617.9  4.649801e-01
15627.9  4.628324e-01
15637.9  4.637492e-01
15647.9  4.632782e-01
15657.9  4.634650e-01
15667.9  4.643742e-01
15677.9  4.643233e-01
15687.9  4.645893e-01
15697.9  4.649244e-01
15707.9  4.649929e-01
15717.9  4.659787e-01
15727.9  4.684122e-01
15737.9  4.671976e-01
15747.9  4.693680e-01
15757.9  4.687616e-01
15767.9  4.711173e-01
15777.9  4.717636e-01
15787.9  4.714265e-01
15797.9  4.733315e-01
15807.9  4.745607e-01
15817.9  4.748586e-01
15827.9  4.758534e-01
15837.9  4.773322e-01
15847.9  4.787876e-01
15857.9  4.786199e-01
15867.9  4.771314e-01
15877.9  4.790089e-01
15887.9  4.782765e-01
15897.9  4.795093e-01
15907.9  4.794552e-01
15917.9  4.807675e-01
15927.9  4.812701e-01
15937.9  4.808690e-01
15947.9  4.801793e-01
15957.9  4.804940e-01
15967.9  4.823464e-01
15977.9  4.818208e-01
15987.9  4.817957e-01
15997.9  4.798872e-01
16007.9  4.826958e-01
16017.9  4.815698e-01
16027.9  4.815722e-01
16037.9  4.811084e-01
16047.9  4.824817e-01
16057.9  4.823704e-01
16067.9  4.824934e-01
16077.9  4.820803e-01
16087.9  4.815936e-01
16097.9  4.820901e-01
16107.9  4.820672e-01
16117.9  4.824090e-01
16127.9  4.811213e-01
16137.9  4.823559e-01
16147.9  4.821820e-01
16157.9  4.827740e-01
16167.9  4.831358e-01
16177.9  4.846363e-01
16187.9  4.816350e-01
16197.9  4.836945e-01
16207.9  4.818460e-01
16217.9  4.842305e-01
16227.9  4.829147e-01
16237.9  4.835396e-01
16247.9  4.834878e-01
16257.9  4.834712e-01
16267.9  4.827022e-01
16277.9  4.847051e-01
16287.9  4.843306e-01
16297.9  4.833655e-01
16307.9  4.840657e-01
16317.9  4.847126e-01
16327.9  4.855825e-01
16337.9  4.844712e-01
16347.9  4.846514e-01
16357.9  4.858276e-01
16367.9  4.850616e-01
16377.9  4.852689e-01
16387.9  4.844135e-01
16397.9  4.853917e-01
16407.9  4.838300e-01
16417.9  4.844135e-01
16427.9  4.838459e-01
16437.9  4.843529e-01
16447.9  4.807809e-01
16457.9  4.839333e-01
16467.9  4.832931e-01
16477.9  4.849619e-01
16487.9  4.838939e-01
16497.9  4.845472e-01
16507.9  4.855212e-01
16517.9  4.856275e-01
16527.9  4.877536e-01
16537.9  4.880803e-01
16547.9  4.878016e-01
16557.9  4.849798e-01
16567.9  4.833440e-01
16577.9  4.795442e-01
16587.9  4.721287e-01
16597.9  4.608951e-01
16607.9  4.484370e-01
16617.9  4.298688e-01
16627.9  4.088794e-01
16637.9  3.814808e-01
16647.9  3.540213e-01
16657.9  3.246208e-01
16667.9  2.926113e-01
16677.9  2.625824e-01
16687.9  2.310701e-01
16697.9  2.008333e-01
16707.9  1.748792e-01
16717.9  1.496817e-01
16727.9  1.282856e-01
16737.9  1.094639e-01
16747.9  9.426471e-02
16757.9  8.247107e-02
16767.9  7.176988e-02
16777.9  6.347883e-02
16787.9  5.523339e-02
16797.9  4.866978e-02
16807.9  4.286498e-02
16817.9  3.849932e-02
16827.9  3.383984e-02
16837.9  3.024949e-02
16847.9  2.644867e-02
16857.9  2.261748e-02
16867.9  1.924998e-02
16877.9  1.623845e-02
16887.9  1.357753e-02
16897.9  1.144972e-02
16907.9  9.628524e-03
16917.9  8.118887e-03
16927.9  6.793279e-03
16937.9  5.754509e-03
16947.9  4.856112e-03
16957.9  4.087580e-03
16967.9  3.490680e-03
16977.9  2.956982e-03
16987.9  2.521134e-03
16997.9  2.160512e-03
17007.9  1.862124e-03
17017.9  1.594590e-03
17027.9  1.377515e-03
17037.9  1.192784e-03
17047.9  1.031769e-03
17057.9  9.001691e-04
17067.9  7.859196e-04
17077.9  6.860375e-04
17087.9  6.011186e-04
17097.9  5.292156e-04
17107.9  4.653660e-04
17117.9  4.102044e-04
17127.9  3.648378e-04
17137.9  3.206403e-04
17147.9  2.870513e-04
17157.9  2.555600e-04
17167.9  2.290843e-04
17177.9  2.044524e-04
17187.9  1.842775e-04
17197.9  1.661987e-04
17207.9  1.502298e-04
17217.9  1.366899e-04
17227.9  1.226397e-04
17237.9  1.120818e-04
17247.9  1.017235e-04
17257.9  9.314979e-05
17267.9  8.368158e-05
17277.9  7.793478e-05
17287.9  6.981394e-05
17297.9  6.512116e-05
17307.9  5.979465e-05
17317.9  5.418497e-05
17327.9  5.091763e-05
17337.9  4.487129e-05
17347.9  4.248501e-05
17357.9  3.904149e-05
17367.9  3.585352e-05
17377.9  3.406694e-05
17387.9  3.139819e-05
17397.9  2.897449e-05
17407.9  2.659406e-05
17417.9  2.462531e-05
17427.9  2.295606e-05
17437.9  2.204174e-05
17447.9  1.998667e-05
17457.9  1.930861e-05
17467.9  1.754596e-05
17477.9  1.723082e-05
17487.9  1.655792e-05
17497.9  1.486350e-05
17507.9  0.000000e+00
17517.9  0.000000e+00
