# Units : 
#   wavelength in Angstroms 
#   transmission in %
# Bandpass Name : J
# Instrument : VISTA/VIRCAM
# Determined by : Unknown
# References : 
#   https://www.eso.org/sci/facilities/paranal/decommissioned/vircam/inst.html
#   https://astro.pas.rochester.edu/IR-camera/papers/CMcMurtry-SPIEv5902-2005-VIRGO.pdf
# Notes :
#   Includes filter transmission ONLY.
#   This file is a copy of 'VISTA_Filters_at80K_forETC_J.dat' from ESO's 
#   'Filters_QE_Atm_curves.tar' with wavelength converted to Angstroms.
#   Prior to April 2025, this was 'vista_vircam_J.par' in sedpy.
#
# wavelength transmission
5000.0000 0.0001
5010.0000 0.0001
5020.0000 0.0001
5030.0000 0.0001
5040.0000 0.0001
5050.0000 0.0001
5060.0000 0.0000
5070.0000 0.0001
5080.0000 0.0001
5090.0000 0.0001
5100.0000 0.0000
5110.0000 0.0000
5120.0000 0.0000
5130.0000 0.0000
5140.0000 0.0000
5150.0000 0.0001
5160.0000 0.0001
5170.0000 0.0001
5180.0000 0.0001
5190.0000 0.0001
5200.0000 0.0000
5210.0000 0.0000
5220.0000 0.0000
5230.0000 0.0000
5240.0000 0.0000
5250.0000 0.0000
5260.0000 0.0000
5270.0000 0.0000
5280.0000 0.0000
5290.0000 0.0000
5300.0000 0.0000
5310.0000 0.0000
5320.0000 0.0000
5330.0000 0.0001
5340.0000 0.0001
5350.0000 0.0001
5360.0000 0.0000
5370.0000 0.0001
5380.0000 0.0001
5390.0000 0.0001
5400.0000 0.0001
5410.0000 0.0001
5420.0000 0.0000
5430.0000 0.0000
5440.0000 0.0000
5450.0000 0.0000
5460.0000 0.0000
5470.0000 0.0000
5480.0000 0.0000
5490.0000 0.0000
5500.0000 0.0000
5510.0000 0.0000
5520.0000 0.0000
5530.0000 0.0000
5540.0000 0.0000
5550.0000 0.0000
5560.0000 0.0000
5570.0000 0.0000
5580.0000 0.0000
5590.0000 0.0000
5600.0000 0.0000
5610.0000 0.0000
5620.0000 0.0000
5630.0000 0.0000
5640.0000 0.0000
5650.0000 0.0000
5660.0000 0.0000
5670.0000 0.0000
5680.0000 0.0000
5690.0000 0.0000
5700.0000 0.0000
5710.0000 0.0001
5720.0000 0.0001
5730.0000 0.0001
5740.0000 0.0000
5750.0000 0.0000
5760.0000 0.0000
5770.0000 0.0000
5780.0000 0.0000
5790.0000 0.0001
5800.0000 0.0001
5810.0000 0.0001
5820.0000 0.0000
5830.0000 0.0000
5840.0000 0.0000
5850.0000 0.0000
5860.0000 0.0000
5870.0000 0.0000
5880.0000 0.0000
5890.0000 0.0000
5900.0000 0.0000
5910.0000 0.0000
5920.0000 0.0000
5930.0000 0.0001
5940.0000 0.0001
5950.0000 0.0001
5960.0000 0.0000
5970.0000 0.0000
5980.0000 0.0000
5990.0000 0.0000
6000.0000 0.0000
6010.0000 0.0001
6020.0000 0.0001
6030.0000 0.0001
6040.0000 0.0000
6050.0000 0.0000
6060.0000 0.0000
6070.0000 0.0000
6080.0000 0.0000
6090.0000 0.0000
6100.0000 0.0000
6110.0000 0.0000
6120.0000 0.0000
6130.0000 0.0000
6140.0000 0.0000
6150.0000 0.0000
6160.0000 0.0000
6170.0000 0.0000
6180.0000 0.0000
6190.0000 0.0000
6200.0000 0.0000
6210.0000 0.0000
6220.0000 0.0000
6230.0000 0.0000
6240.0000 0.0000
6250.0000 0.0001
6260.0000 0.0001
6270.0000 0.0001
6280.0000 0.0001
6290.0000 0.0001
6300.0000 0.0000
6310.0000 0.0000
6320.0000 0.0000
6330.0000 0.0001
6340.0000 0.0001
6350.0000 0.0002
6360.0000 0.0002
6370.0000 0.0001
6380.0000 0.0000
6390.0000 0.0001
6400.0000 0.0001
6410.0000 0.0002
6420.0000 0.0002
6430.0000 0.0002
6440.0000 0.0002
6450.0000 0.0003
6460.0000 0.0003
6470.0000 0.0004
6480.0000 0.0004
6490.0000 0.0005
6500.0000 0.0006
6510.0000 0.0008
6520.0000 0.0009
6530.0000 0.0010
6540.0000 0.0011
6550.0000 0.0012
6560.0000 0.0012
6570.0000 0.0014
6580.0000 0.0015
6590.0000 0.0016
6600.0000 0.0017
6610.0000 0.0018
6620.0000 0.0019
6630.0000 0.0021
6640.0000 0.0022
6650.0000 0.0024
6660.0000 0.0025
6670.0000 0.0028
6680.0000 0.0030
6690.0000 0.0034
6700.0000 0.0038
6710.0000 0.0043
6720.0000 0.0047
6730.0000 0.0054
6740.0000 0.0060
6750.0000 0.0069
6760.0000 0.0078
6770.0000 0.0089
6780.0000 0.0100
6790.0000 0.0113
6800.0000 0.0126
6810.0000 0.0141
6820.0000 0.0156
6830.0000 0.0175
6840.0000 0.0193
6850.0000 0.0215
6860.0000 0.0237
6870.0000 0.0262
6880.0000 0.0287
6890.0000 0.0312
6900.0000 0.0337
6910.0000 0.0357
6920.0000 0.0377
6930.0000 0.0379
6940.0000 0.0381
6950.0000 0.0367
6960.0000 0.0353
6970.0000 0.0333
6980.0000 0.0313
6990.0000 0.0290
7000.0000 0.0267
7010.0000 0.0241
7020.0000 0.0214
7030.0000 0.0185
7040.0000 0.0156
7050.0000 0.0128
7060.0000 0.0099
7070.0000 0.0078
7080.0000 0.0057
7090.0000 0.0045
7100.0000 0.0032
7110.0000 0.0023
7120.0000 0.0014
7130.0000 0.0011
7140.0000 0.0007
7150.0000 0.0006
7160.0000 0.0004
7170.0000 0.0003
7180.0000 0.0002
7190.0000 0.0002
7200.0000 0.0001
7210.0000 0.0001
7220.0000 0.0000
7230.0000 0.0001
7240.0000 0.0002
7250.0000 0.0001
7260.0000 0.0000
7270.0000 0.0000
7280.0000 0.0000
7290.0000 0.0000
7300.0000 0.0000
7310.0000 0.0001
7320.0000 0.0001
7330.0000 0.0001
7340.0000 0.0001
7350.0000 0.0001
7360.0000 0.0000
7370.0000 0.0001
7380.0000 0.0001
7390.0000 0.0001
7400.0000 0.0000
7410.0000 0.0000
7420.0000 0.0000
7430.0000 0.0000
7440.0000 0.0000
7450.0000 0.0000
7460.0000 0.0000
7470.0000 0.0000
7480.0000 0.0000
7490.0000 0.0000
7500.0000 0.0000
7510.0000 0.0000
7520.0000 0.0000
7530.0000 0.0000
7540.0000 0.0000
7550.0000 0.0000
7560.0000 0.0000
7570.0000 0.0000
7580.0000 0.0000
7590.0000 0.0000
7600.0000 0.0000
7610.0000 0.0000
7620.0000 0.0000
7630.0000 0.0000
7640.0000 0.0000
7650.0000 0.0000
7660.0000 0.0000
7670.0000 0.0001
7680.0000 0.0001
7690.0000 0.0001
7700.0000 0.0000
7710.0000 0.0000
7720.0000 0.0000
7730.0000 0.0000
7740.0000 0.0000
7750.0000 0.0000
7760.0000 0.0000
7770.0000 0.0000
7780.0000 0.0000
7790.0000 0.0000
7800.0000 0.0000
7810.0000 0.0000
7820.0000 0.0000
7830.0000 0.0000
7840.0000 0.0000
7850.0000 0.0000
7860.0000 0.0000
7870.0000 0.0000
7880.0000 0.0000
7890.0000 0.0000
7900.0000 0.0000
7910.0000 0.0000
7920.0000 0.0000
7930.0000 0.0000
7940.0000 0.0000
7950.0000 0.0000
7960.0000 0.0000
7970.0000 0.0000
7980.0000 0.0000
7990.0000 0.0000
8000.0000 0.0000
8010.0000 0.0000
8020.0000 0.0000
8030.0000 0.0001
8040.0000 0.0001
8050.0000 0.0003
8060.0000 0.0005
8070.0000 0.0012
8080.0000 0.0018
8090.0000 0.0017
8100.0000 0.0016
8110.0000 0.0008
8120.0000 0.0000
8130.0000 0.0000
8140.0000 0.0000
8150.0000 0.0000
8160.0000 0.0000
8170.0000 0.0000
8180.0000 0.0000
8190.0000 0.0000
8200.0000 0.0000
8210.0000 0.0000
8220.0000 0.0000
8230.0000 0.0000
8240.0000 0.0000
8250.0000 0.0000
8260.0000 0.0000
8270.0000 0.0000
8280.0000 0.0000
8290.0000 -0.0005
8300.0000 -0.0010
8310.0000 -0.0005
8320.0000 0.0000
8330.0000 0.0000
8340.0000 0.0000
8350.0000 0.0000
8360.0000 0.0000
8370.0000 0.0000
8380.0000 0.0000
8390.0000 -0.0005
8400.0000 -0.0010
8410.0000 -0.0015
8420.0000 -0.0020
8430.0000 -0.0020
8440.0000 -0.0020
8450.0000 -0.0025
8460.0000 -0.0030
8470.0000 -0.0004
8480.0000 0.0022
8490.0000 0.0001
8500.0000 -0.0020
8510.0000 -0.0045
8520.0000 -0.0070
8530.0000 -0.0070
8540.0000 -0.0070
8550.0000 -0.0055
8560.0000 -0.0040
8570.0000 0.0123
8580.0000 0.0285
8590.0000 0.0302
8600.0000 0.0318
8610.0000 0.0241
8620.0000 0.0164
8630.0000 0.0186
8640.0000 0.0207
8650.0000 0.0219
8660.0000 0.0230
8670.0000 0.0234
8680.0000 0.0238
8690.0000 0.0251
8700.0000 0.0264
8710.0000 0.0273
8720.0000 0.0281
8730.0000 0.0276
8740.0000 0.0270
8750.0000 0.0277
8760.0000 0.0283
8770.0000 0.0275
8780.0000 0.0267
8790.0000 0.0249
8800.0000 0.0231
8810.0000 0.0227
8820.0000 0.0223
8830.0000 0.0219
8840.0000 0.0215
8850.0000 0.0212
8860.0000 0.0209
8870.0000 0.0216
8880.0000 0.0223
8890.0000 0.0228
8900.0000 0.0233
8910.0000 0.0229
8920.0000 0.0225
8930.0000 0.0243
8940.0000 0.0261
8950.0000 0.0267
8960.0000 0.0273
8970.0000 0.0274
8980.0000 0.0275
8990.0000 0.0278
9000.0000 0.0280
9010.0000 0.0284
9020.0000 0.0288
9030.0000 0.0279
9040.0000 0.0269
9050.0000 0.0265
9060.0000 0.0260
9070.0000 0.0254
9080.0000 0.0247
9090.0000 0.0237
9100.0000 0.0227
9110.0000 0.0219
9120.0000 0.0210
9130.0000 0.0202
9140.0000 0.0193
9150.0000 0.0187
9160.0000 0.0181
9170.0000 0.0172
9180.0000 0.0162
9190.0000 0.0159
9200.0000 0.0156
9210.0000 0.0153
9220.0000 0.0149
9230.0000 0.0139
9240.0000 0.0128
9250.0000 0.0122
9260.0000 0.0116
9270.0000 0.0114
9280.0000 0.0111
9290.0000 0.0103
9300.0000 0.0094
9310.0000 0.0089
9320.0000 0.0084
9330.0000 0.0078
9340.0000 0.0072
9350.0000 0.0065
9360.0000 0.0057
9370.0000 0.0053
9380.0000 0.0048
9390.0000 0.0049
9400.0000 0.0049
9410.0000 0.0041
9420.0000 0.0033
9430.0000 0.0033
9440.0000 0.0032
9450.0000 0.0034
9460.0000 0.0036
9470.0000 0.0041
9480.0000 0.0046
9490.0000 0.0048
9500.0000 0.0050
9510.0000 0.0053
9520.0000 0.0056
9530.0000 0.0059
9540.0000 0.0062
9550.0000 0.0064
9560.0000 0.0065
9570.0000 0.0066
9580.0000 0.0066
9590.0000 0.0064
9600.0000 0.0062
9610.0000 0.0060
9620.0000 0.0057
9630.0000 0.0058
9640.0000 0.0058
9650.0000 0.0053
9660.0000 0.0048
9670.0000 0.0042
9680.0000 0.0036
9690.0000 0.0034
9700.0000 0.0032
9710.0000 0.0028
9720.0000 0.0023
9730.0000 0.0019
9740.0000 0.0014
9750.0000 0.0010
9760.0000 0.0006
9770.0000 0.0008
9780.0000 0.0009
9790.0000 0.0005
9800.0000 0.0001
9810.0000 0.0003
9820.0000 0.0005
9830.0000 0.0005
9840.0000 0.0005
9850.0000 0.0005
9860.0000 0.0005
9870.0000 0.0005
9880.0000 0.0004
9890.0000 0.0004
9900.0000 0.0004
9910.0000 0.0004
9920.0000 0.0003
9930.0000 0.0003
9940.0000 0.0002
9950.0000 0.0003
9960.0000 0.0004
9970.0000 0.0004
9980.0000 0.0004
9990.0000 0.0006
10000.0000 0.0007
10010.0000 0.0006
10020.0000 0.0005
10030.0000 0.0005
10040.0000 0.0004
10050.0000 0.0006
10060.0000 0.0008
10070.0000 0.0008
10080.0000 0.0007
10090.0000 0.0006
10100.0000 0.0005
10110.0000 0.0006
10120.0000 0.0007
10130.0000 0.0007
10140.0000 0.0006
10150.0000 0.0005
10160.0000 0.0003
10170.0000 0.0005
10180.0000 0.0006
10190.0000 0.0004
10200.0000 0.0002
10210.0000 0.0001
10220.0000 0.0000
10230.0000 0.0002
10240.0000 0.0003
10250.0000 0.0002
10260.0000 0.0001
10270.0000 0.0001
10280.0000 0.0000
10290.0000 0.0002
10300.0000 0.0004
10310.0000 0.0002
10320.0000 0.0000
10330.0000 0.0002
10340.0000 0.0003
10350.0000 0.0004
10360.0000 0.0005
10370.0000 0.0005
10380.0000 0.0004
10390.0000 0.0004
10400.0000 0.0004
10410.0000 0.0005
10420.0000 0.0006
10430.0000 0.0007
10440.0000 0.0008
10450.0000 0.0007
10460.0000 0.0006
10470.0000 0.0006
10480.0000 0.0005
10490.0000 0.0007
10500.0000 0.0009
10510.0000 0.0009
10520.0000 0.0008
10530.0000 0.0008
10540.0000 0.0008
10550.0000 0.0010
10560.0000 0.0012
10570.0000 0.0011
10580.0000 0.0010
10590.0000 0.0011
10600.0000 0.0012
10610.0000 0.0011
10620.0000 0.0010
10630.0000 0.0010
10640.0000 0.0010
10650.0000 0.0013
10660.0000 0.0015
10670.0000 0.0014
10680.0000 0.0013
10690.0000 0.0015
10700.0000 0.0016
10710.0000 0.0017
10720.0000 0.0017
10730.0000 0.0020
10740.0000 0.0022
10750.0000 0.0022
10760.0000 0.0021
10770.0000 0.0024
10780.0000 0.0026
10790.0000 0.0026
10800.0000 0.0026
10810.0000 0.0027
10820.0000 0.0027
10830.0000 0.0031
10840.0000 0.0034
10850.0000 0.0037
10860.0000 0.0040
10870.0000 0.0041
10880.0000 0.0041
10890.0000 0.0043
10900.0000 0.0044
10910.0000 0.0048
10920.0000 0.0051
10930.0000 0.0056
10940.0000 0.0061
10950.0000 0.0067
10960.0000 0.0072
10970.0000 0.0076
10980.0000 0.0080
10990.0000 0.0086
11000.0000 -0.0200
11010.0000 -0.0305
11020.0000 -0.0410
11030.0000 -0.0755
11040.0000 -0.1100
11050.0000 -0.0081
11060.0000 0.0939
11070.0000 0.0340
11080.0000 -0.0260
11090.0000 0.0450
11100.0000 0.1159
11110.0000 0.0310
11120.0000 -0.0540
11130.0000 -0.0595
11140.0000 -0.0650
11150.0000 -0.0299
11160.0000 0.0052
11170.0000 0.0605
11180.0000 0.1158
11190.0000 0.0773
11200.0000 0.0387
11210.0000 0.0203
11220.0000 0.0019
11230.0000 0.0587
11240.0000 0.1154
11250.0000 0.1327
11260.0000 0.1499
11270.0000 0.1584
11280.0000 0.1668
11290.0000 0.1789
11300.0000 0.1910
11310.0000 0.2530
11320.0000 0.3149
11330.0000 0.3267
11340.0000 0.3385
11350.0000 0.3614
11360.0000 0.3842
11370.0000 0.4572
11380.0000 0.5301
11390.0000 0.6286
11400.0000 0.7270
11410.0000 0.7339
11420.0000 0.7408
11430.0000 0.9365
11440.0000 1.1322
11450.0000 1.2570
11460.0000 1.3818
11470.0000 1.6103
11480.0000 1.8388
11490.0000 2.1589
11500.0000 2.4790
11510.0000 2.9972
11520.0000 3.5154
11530.0000 4.2034
11540.0000 4.8914
11550.0000 5.8487
11560.0000 6.8059
11570.0000 8.3060
11580.0000 9.8061
11590.0000 12.1571
11600.0000 14.5080
11610.0000 17.9855
11620.0000 21.4630
11630.0000 26.3295
11640.0000 31.1960
11650.0000 37.3305
11660.0000 43.4650
11670.0000 49.9745
11680.0000 56.4840
11690.0000 61.9145
11700.0000 67.3450
11710.0000 70.6590
11720.0000 73.9730
11730.0000 75.1700
11740.0000 76.3670
11750.0000 76.2805
11760.0000 76.1940
11770.0000 75.5635
11780.0000 74.9330
11790.0000 74.3030
11800.0000 73.6730
11810.0000 73.1525
11820.0000 72.6320
11830.0000 72.4070
11840.0000 72.1820
11850.0000 72.1570
11860.0000 72.1320
11870.0000 72.3845
11880.0000 72.6370
11890.0000 73.0950
11900.0000 73.5530
11910.0000 74.0780
11920.0000 74.6030
11930.0000 75.2375
11940.0000 75.8720
11950.0000 76.5400
11960.0000 77.2080
11970.0000 77.8240
11980.0000 78.4400
11990.0000 79.0285
12000.0000 79.6170
12010.0000 80.1835
12020.0000 80.7500
12030.0000 81.1420
12040.0000 81.5340
12050.0000 81.8805
12060.0000 82.2270
12070.0000 82.5250
12080.0000 82.8230
12090.0000 83.0450
12100.0000 83.2670
12110.0000 83.3760
12120.0000 83.4850
12130.0000 83.6225
12140.0000 83.7600
12150.0000 83.8025
12160.0000 83.8450
12170.0000 83.9515
12180.0000 84.0580
12190.0000 84.1560
12200.0000 84.2540
12210.0000 84.3460
12220.0000 84.4380
12230.0000 84.5320
12240.0000 84.6260
12250.0000 84.7285
12260.0000 84.8310
12270.0000 84.9675
12280.0000 85.1040
12290.0000 85.3525
12300.0000 85.6010
12310.0000 85.7575
12320.0000 85.9140
12330.0000 86.1095
12340.0000 86.3050
12350.0000 86.4405
12360.0000 86.5760
12370.0000 86.7640
12380.0000 86.9520
12390.0000 87.0480
12400.0000 87.1440
12410.0000 87.1960
12420.0000 87.2480
12430.0000 87.2300
12440.0000 87.2120
12450.0000 87.1505
12460.0000 87.0890
12470.0000 86.9145
12480.0000 86.7400
12490.0000 86.5495
12500.0000 86.3590
12510.0000 86.0435
12520.0000 85.7280
12530.0000 85.2715
12540.0000 84.8150
12550.0000 84.2870
12560.0000 83.7590
12570.0000 83.1755
12580.0000 82.5920
12590.0000 82.1515
12600.0000 81.7110
12610.0000 81.3980
12620.0000 81.0850
12630.0000 80.6690
12640.0000 80.2530
12650.0000 79.7115
12660.0000 79.1700
12670.0000 78.6295
12680.0000 78.0890
12690.0000 77.7815
12700.0000 77.4740
12710.0000 77.3535
12720.0000 77.2330
12730.0000 77.1535
12740.0000 77.0740
12750.0000 76.8935
12760.0000 76.7130
12770.0000 76.4295
12780.0000 76.1460
12790.0000 76.1495
12800.0000 76.1530
12810.0000 76.5285
12820.0000 76.9040
12830.0000 77.3170
12840.0000 77.7300
12850.0000 77.8835
12860.0000 78.0370
12870.0000 78.0510
12880.0000 78.0650
12890.0000 78.5095
12900.0000 78.9540
12910.0000 79.7735
12920.0000 80.5930
12930.0000 81.0315
12940.0000 81.4700
12950.0000 81.4310
12960.0000 81.3920
12970.0000 82.0080
12980.0000 82.6240
12990.0000 83.4985
13000.0000 84.3730
13010.0000 84.5245
13020.0000 84.6760
13030.0000 84.7565
13040.0000 84.8370
13050.0000 85.7065
13060.0000 86.5760
13070.0000 86.9820
13080.0000 87.3880
13090.0000 87.0030
13100.0000 86.6180
13110.0000 87.0930
13120.0000 87.5680
13130.0000 88.1080
13140.0000 88.6480
13150.0000 88.0720
13160.0000 87.4960
13170.0000 87.1795
13180.0000 86.8630
13190.0000 87.2150
13200.0000 87.5670
13210.0000 86.6600
13220.0000 85.7530
13230.0000 84.3270
13240.0000 82.9010
13250.0000 82.1890
13260.0000 81.4770
13270.0000 79.6405
13280.0000 77.8040
13290.0000 75.0600
13300.0000 72.3160
13310.0000 70.0660
13320.0000 67.8160
13330.0000 64.3025
13340.0000 60.7890
13350.0000 57.0230
13360.0000 53.2570
13370.0000 50.0490
13380.0000 46.8410
13390.0000 42.9610
13400.0000 39.0810
13410.0000 35.9215
13420.0000 32.7620
13430.0000 29.7835
13440.0000 26.8050
13450.0000 24.1005
13460.0000 21.3960
13470.0000 19.3260
13480.0000 17.2560
13490.0000 15.4490
13500.0000 13.6420
13510.0000 12.2980
13520.0000 10.9540
13530.0000 9.8259
13540.0000 8.6977
13550.0000 7.6828
13560.0000 6.6679
13570.0000 6.0518
13580.0000 5.4356
13590.0000 4.8431
13600.0000 4.2506
13610.0000 3.8406
13620.0000 3.4306
13630.0000 3.1117
13640.0000 2.7927
13650.0000 2.4583
13660.0000 2.1238
13670.0000 1.9923
13680.0000 1.8608
13690.0000 1.6907
13700.0000 1.5205
13710.0000 1.3721
13720.0000 1.2237
13730.0000 1.1117
13740.0000 0.9997
13750.0000 0.9402
13760.0000 0.8807
13770.0000 0.8361
13780.0000 0.7915
13790.0000 0.6782
13800.0000 0.5648
13810.0000 0.4777
13820.0000 0.3905
13830.0000 0.3706
13840.0000 0.3506
13850.0000 0.4279
13860.0000 0.5052
13870.0000 0.3680
13880.0000 0.2308
13890.0000 0.2172
13900.0000 0.2036
13910.0000 0.2079
13920.0000 0.2121
13930.0000 0.1948
13940.0000 0.1774
13950.0000 0.1471
13960.0000 0.1168
13970.0000 0.1059
13980.0000 0.0950
13990.0000 0.1084
14000.0000 0.1218
14010.0000 0.1293
14020.0000 0.1368
14030.0000 0.1374
14040.0000 0.1379
14050.0000 0.1077
14060.0000 0.0775
14070.0000 0.0500
14080.0000 0.0225
14090.0000 -0.0018
14100.0000 -0.0260
14110.0000 0.0183
14120.0000 0.0625
14130.0000 0.0771
14140.0000 0.0917
14150.0000 0.0712
14160.0000 0.0507
14170.0000 0.0278
14180.0000 0.0049
14190.0000 -0.0491
14200.0000 -0.1030
14210.0000 0.0043
14220.0000 0.1115
14230.0000 0.0612
14240.0000 0.0109
14250.0000 -0.0061
14260.0000 -0.0230
14270.0000 0.0375
14280.0000 0.0980
14290.0000 0.0871
14300.0000 0.0762
14310.0000 0.0899
14320.0000 0.1035
14330.0000 0.0564
14340.0000 0.0093
14350.0000 0.0058
14360.0000 0.0022
14370.0000 0.0629
14380.0000 0.1235
14390.0000 0.0413
14400.0000 -0.0410
14410.0000 -0.0520
14420.0000 -0.0630
14430.0000 0.0117
14440.0000 0.0863
14450.0000 0.0547
14460.0000 0.0230
14470.0000 0.0202
14480.0000 0.0174
14490.0000 -0.0103
14500.0000 -0.0380
14510.0000 -0.0109
14520.0000 0.0162
14530.0000 0.0531
14540.0000 0.0900
14550.0000 0.0340
14560.0000 -0.0220
14570.0000 0.0078
14580.0000 0.0376
14590.0000 0.0311
14600.0000 0.0245
14610.0000 0.0195
14620.0000 0.0145
14630.0000 0.0096
14640.0000 0.0047
14650.0000 -0.0342
14660.0000 -0.0730
14670.0000 -0.0420
14680.0000 -0.0110
14690.0000 0.0139
14700.0000 0.0387
14710.0000 -0.0422
14720.0000 -0.1230
14730.0000 -0.1070
14740.0000 -0.0910
14750.0000 -0.0510
14760.0000 -0.0110
14770.0000 -0.0029
14780.0000 0.0053
14790.0000 0.0193
14800.0000 0.0333
14810.0000 0.0563
14820.0000 0.0792
14830.0000 0.0459
14840.0000 0.0126
14850.0000 0.0651
14860.0000 0.1176
14870.0000 0.0398
14880.0000 -0.0380
14890.0000 -0.0415
14900.0000 -0.0450
14910.0000 -0.0285
14920.0000 -0.0120
14930.0000 -0.0260
14940.0000 -0.0400
14950.0000 -0.0235
14960.0000 -0.0070
14970.0000 0.0206
14980.0000 0.0481
14990.0000 -0.0200
15000.0000 -0.0880
15010.0000 0.0030
15020.0000 0.0029
15030.0000 0.0027
15040.0000 0.0025
15050.0000 0.0023
15060.0000 0.0021
15070.0000 0.0019
15080.0000 0.0017
15090.0000 0.0025
15100.0000 0.0033
15110.0000 0.0036
15120.0000 0.0038
15130.0000 0.0036
15140.0000 0.0033
15150.0000 0.0035
15160.0000 0.0036
15170.0000 0.0034
15180.0000 0.0031
15190.0000 0.0032
15200.0000 0.0032
15210.0000 0.0032
15220.0000 0.0032
15230.0000 0.0032
15240.0000 0.0031
15250.0000 0.0032
15260.0000 0.0033
15270.0000 0.0032
15280.0000 0.0030
15290.0000 0.0031
15300.0000 0.0031
15310.0000 0.0031
15320.0000 0.0031
15330.0000 0.0031
15340.0000 0.0031
15350.0000 0.0030
15360.0000 0.0029
15370.0000 0.0031
15380.0000 0.0032
15390.0000 0.0031
15400.0000 0.0029
15410.0000 0.0029
15420.0000 0.0029
15430.0000 0.0029
15440.0000 0.0029
15450.0000 0.0029
15460.0000 0.0028
15470.0000 0.0028
15480.0000 0.0028
15490.0000 0.0029
15500.0000 0.0030
15510.0000 0.0030
15520.0000 0.0030
15530.0000 0.0029
15540.0000 0.0027
15550.0000 0.0027
15560.0000 0.0027
15570.0000 0.0028
15580.0000 0.0029
15590.0000 0.0030
15600.0000 0.0030
15610.0000 0.0030
15620.0000 0.0029
15630.0000 0.0029
15640.0000 0.0028
15650.0000 0.0030
15660.0000 0.0031
15670.0000 0.0030
15680.0000 0.0028
15690.0000 0.0029
15700.0000 0.0029
15710.0000 0.0029
15720.0000 0.0028
15730.0000 0.0029
15740.0000 0.0030
15750.0000 0.0029
15760.0000 0.0028
15770.0000 0.0029
15780.0000 0.0030
15790.0000 0.0030
15800.0000 0.0030
15810.0000 0.0030
15820.0000 0.0030
15830.0000 0.0029
15840.0000 0.0027
15850.0000 0.0028
15860.0000 0.0029
15870.0000 0.0030
15880.0000 0.0030
15890.0000 0.0031
15900.0000 0.0031
15910.0000 0.0031
15920.0000 0.0031
15930.0000 0.0033
15940.0000 0.0034
15950.0000 0.0033
15960.0000 0.0031
15970.0000 0.0032
15980.0000 0.0033
15990.0000 0.0033
16000.0000 0.0032
16010.0000 0.0033
16020.0000 0.0033
16030.0000 0.0034
16040.0000 0.0034
16050.0000 0.0035
16060.0000 0.0035
16070.0000 0.0036
16080.0000 0.0037
16090.0000 0.0038
16100.0000 0.0038
16110.0000 0.0038
16120.0000 0.0038
16130.0000 0.0036
16140.0000 0.0034
16150.0000 0.0036
16160.0000 0.0038
16170.0000 0.0040
16180.0000 0.0041
16190.0000 0.0042
16200.0000 0.0042
16210.0000 0.0041
16220.0000 0.0040
16230.0000 0.0041
16240.0000 0.0042
16250.0000 0.0043
16260.0000 0.0043
16270.0000 0.0043
16280.0000 0.0043
16290.0000 0.0044
16300.0000 0.0044
16310.0000 0.0045
16320.0000 0.0045
16330.0000 0.0045
16340.0000 0.0045
16350.0000 0.0047
16360.0000 0.0048
16370.0000 0.0047
16380.0000 0.0046
16390.0000 0.0049
16400.0000 0.0051
16410.0000 0.0051
16420.0000 0.0051
16430.0000 0.0053
16440.0000 0.0055
16450.0000 0.0055
16460.0000 0.0055
16470.0000 0.0058
16480.0000 0.0060
16490.0000 0.0061
16500.0000 0.0061
16510.0000 0.0061
16520.0000 0.0060
16530.0000 0.0063
16540.0000 0.0066
16550.0000 0.0069
16560.0000 0.0071
16570.0000 0.0071
16580.0000 0.0071
16590.0000 0.0072
16600.0000 0.0072
16610.0000 0.0075
16620.0000 0.0078
16630.0000 0.0079
16640.0000 0.0080
16650.0000 0.0082
16660.0000 0.0083
16670.0000 0.0087
16680.0000 0.0090
16690.0000 0.0094
16700.0000 0.0097
16710.0000 0.0100
16720.0000 0.0102
16730.0000 0.0102
16740.0000 0.0102
16750.0000 0.0108
16760.0000 0.0113
16770.0000 0.0115
16780.0000 0.0116
16790.0000 0.0118
16800.0000 0.0119
16810.0000 0.0124
16820.0000 0.0128
16830.0000 0.0127
16840.0000 0.0125
16850.0000 0.0125
16860.0000 0.0125
16870.0000 0.0127
16880.0000 0.0128
16890.0000 0.0129
16900.0000 0.0129
16910.0000 0.0130
16920.0000 0.0130
16930.0000 0.0128
16940.0000 0.0126
16950.0000 0.0123
16960.0000 0.0119
16970.0000 0.0119
16980.0000 0.0119
16990.0000 0.0116
17000.0000 0.0112
17010.0000 0.0111
17020.0000 0.0110
17030.0000 0.0104
17040.0000 0.0098
17050.0000 0.0095
17060.0000 0.0091
17070.0000 0.0088
17080.0000 0.0084
17090.0000 0.0079
17100.0000 0.0073
17110.0000 0.0072
17120.0000 0.0070
17130.0000 0.0067
17140.0000 0.0064
17150.0000 0.0059
17160.0000 0.0054
17170.0000 0.0052
17180.0000 0.0050
17190.0000 0.0050
17200.0000 0.0050
17210.0000 0.0048
17220.0000 0.0045
17230.0000 0.0040
17240.0000 0.0035
17250.0000 0.0037
17260.0000 0.0038
17270.0000 0.0037
17280.0000 0.0036
17290.0000 0.0034
17300.0000 0.0032
17310.0000 0.0033
17320.0000 0.0033
17330.0000 0.0032
17340.0000 0.0030
17350.0000 0.0029
17360.0000 0.0028
17370.0000 0.0030
17380.0000 0.0032
17390.0000 0.0031
17400.0000 0.0030
17410.0000 0.0032
17420.0000 0.0034
17430.0000 0.0035
17440.0000 0.0036
17450.0000 0.0035
17460.0000 0.0033
17470.0000 0.0036
17480.0000 0.0038
17490.0000 0.0039
17500.0000 0.0040
17510.0000 0.0042
17520.0000 0.0044
17530.0000 0.0047
17540.0000 0.0050
17550.0000 0.0058
17560.0000 0.0065
17570.0000 0.0068
17580.0000 0.0071
17590.0000 0.0075
17600.0000 0.0078
17610.0000 0.0083
17620.0000 0.0088
17630.0000 0.0091
17640.0000 0.0094
17650.0000 0.0096
17660.0000 0.0098
17670.0000 0.0098
17680.0000 0.0097
17690.0000 0.0097
17700.0000 0.0097
17710.0000 0.0093
17720.0000 0.0088
17730.0000 0.0084
17740.0000 0.0079
17750.0000 0.0075
17760.0000 0.0070
17770.0000 0.0063
17780.0000 0.0056
17790.0000 0.0053
17800.0000 0.0050
17810.0000 0.0045
17820.0000 0.0039
17830.0000 0.0036
17840.0000 0.0033
17850.0000 0.0030
17860.0000 0.0026
17870.0000 0.0024
17880.0000 0.0021
17890.0000 0.0017
17900.0000 0.0013
17910.0000 0.0012
17920.0000 0.0011
17930.0000 0.0010
17940.0000 0.0008
17950.0000 0.0007
17960.0000 0.0006
17970.0000 0.0005
17980.0000 0.0004
17990.0000 0.0003
18000.0000 0.0001
18010.0000 0.0003
18020.0000 0.0004
18030.0000 0.0003
18040.0000 0.0001
18050.0000 0.0002
18060.0000 0.0002
18070.0000 0.0001
18080.0000 0.0000
18090.0000 0.0001
18100.0000 0.0002
18110.0000 0.0002
18120.0000 0.0002
18130.0000 0.0002
18140.0000 0.0002
18150.0000 0.0003
18160.0000 0.0003
18170.0000 0.0002
18180.0000 0.0000
18190.0000 0.0000
18200.0000 0.0000
18210.0000 0.0002
18220.0000 0.0003
18230.0000 0.0002
18240.0000 0.0000
18250.0000 0.0000
18260.0000 0.0000
18270.0000 0.0001
18280.0000 0.0002
18290.0000 0.0002
18300.0000 0.0002
18310.0000 0.0003
18320.0000 0.0003
18330.0000 0.0005
18340.0000 0.0006
18350.0000 0.0005
18360.0000 0.0003
18370.0000 0.0002
18380.0000 0.0001
18390.0000 0.0002
18400.0000 0.0002
18410.0000 0.0004
18420.0000 0.0006
18430.0000 0.0004
18440.0000 0.0001
18450.0000 0.0001
18460.0000 0.0000
18470.0000 0.0002
18480.0000 0.0003
18490.0000 0.0002
18500.0000 0.0000
18510.0000 0.0000
18520.0000 0.0000
18530.0000 0.0000
18540.0000 0.0000
18550.0000 0.0002
18560.0000 0.0004
18570.0000 0.0002
18580.0000 0.0000
18590.0000 0.0000
18600.0000 0.0000
18610.0000 0.0001
18620.0000 0.0001
18630.0000 0.0001
18640.0000 0.0000
18650.0000 0.0000
18660.0000 0.0000
18670.0000 0.0002
18680.0000 0.0003
18690.0000 0.0002
18700.0000 0.0000
18710.0000 0.0002
18720.0000 0.0003
18730.0000 0.0002
18740.0000 0.0000
18750.0000 0.0000
18760.0000 0.0000
18770.0000 0.0002
18780.0000 0.0004
18790.0000 0.0003
18800.0000 0.0002
18810.0000 0.0002
18820.0000 0.0002
18830.0000 0.0001
18840.0000 0.0000
18850.0000 0.0000
18860.0000 0.0000
18870.0000 0.0001
18880.0000 0.0002
18890.0000 0.0003
18900.0000 0.0003
18910.0000 0.0002
18920.0000 0.0000
18930.0000 0.0001
18940.0000 0.0002
18950.0000 0.0001
18960.0000 0.0000
18970.0000 0.0000
18980.0000 0.0000
18990.0000 0.0002
19000.0000 0.0004
19010.0000 -0.0003
19020.0000 -0.0010
19030.0000 -0.0005
19040.0000 0.0000
19050.0000 0.0000
19060.0000 0.0000
19070.0000 0.0000
19080.0000 0.0000
19090.0000 0.0000
19100.0000 0.0000
19110.0000 0.0004
19120.0000 0.0007
19130.0000 0.0004
19140.0000 0.0000
19150.0000 0.0000
19160.0000 0.0000
19170.0000 0.0002
19180.0000 0.0004
19190.0000 0.0002
19200.0000 0.0000
19210.0000 0.0000
19220.0000 0.0000
19230.0000 0.0004
19240.0000 0.0008
19250.0000 0.0004
19260.0000 0.0000
19270.0000 0.0000
19280.0000 0.0000
19290.0000 0.0000
19300.0000 0.0000
19310.0000 0.0002
19320.0000 0.0004
19330.0000 0.0002
19340.0000 0.0000
19350.0000 0.0001
19360.0000 0.0002
19370.0000 0.0002
19380.0000 0.0002
19390.0000 0.0001
19400.0000 0.0000
19410.0000 0.0002
19420.0000 0.0004
19430.0000 0.0005
19440.0000 0.0006
19450.0000 0.0003
19460.0000 0.0000
19470.0000 0.0004
19480.0000 0.0007
19490.0000 0.0004
19500.0000 0.0000
19510.0000 0.0000
19520.0000 0.0000
19530.0000 0.0000
19540.0000 0.0000
19550.0000 0.0002
19560.0000 0.0003
19570.0000 0.0002
19580.0000 0.0000
19590.0000 0.0001
19600.0000 0.0001
19610.0000 0.0005
19620.0000 0.0009
19630.0000 0.0005
19640.0000 0.0000
19650.0000 0.0000
19660.0000 0.0000
19670.0000 0.0003
19680.0000 0.0006
19690.0000 0.0007
19700.0000 0.0007
19710.0000 0.0004
19720.0000 0.0000
19730.0000 0.0004
19740.0000 0.0008
19750.0000 0.0008
19760.0000 0.0008
19770.0000 0.0004
19780.0000 0.0000
19790.0000 0.0005
19800.0000 0.0010
19810.0000 0.0012
19820.0000 0.0013
19830.0000 0.0007
19840.0000 0.0000
19850.0000 0.0005
19860.0000 0.0009
19870.0000 0.0006
19880.0000 0.0003
19890.0000 0.0002
19900.0000 0.0000
19910.0000 0.0004
19920.0000 0.0007
19930.0000 0.0009
19940.0000 0.0011
19950.0000 0.0006
19960.0000 0.0000
19970.0000 0.0002
19980.0000 0.0003
19990.0000 0.0006
20000.0000 0.0008
20010.0000 0.0004
20020.0000 0.0000
20030.0000 0.0000
20040.0000 0.0000
20050.0000 0.0004
20060.0000 0.0007
20070.0000 0.0004
20080.0000 0.0000
20090.0000 0.0002
20100.0000 0.0004
20110.0000 0.0006
20120.0000 0.0008
20130.0000 0.0004
20140.0000 0.0000
20150.0000 0.0003
20160.0000 0.0005
20170.0000 0.0005
20180.0000 0.0005
20190.0000 -0.0003
20200.0000 -0.0010
20210.0000 -0.0005
20220.0000 0.0000
20230.0000 0.0000
20240.0000 0.0000
20250.0000 0.0000
20260.0000 0.0000
20270.0000 0.0001
20280.0000 0.0002
20290.0000 0.0006
20300.0000 0.0010
20310.0000 0.0005
20320.0000 0.0000
20330.0000 0.0002
20340.0000 0.0004
20350.0000 0.0004
20360.0000 0.0004
20370.0000 0.0002
20380.0000 0.0000
20390.0000 0.0002
20400.0000 0.0004
20410.0000 0.0007
20420.0000 0.0009
20430.0000 0.0005
20440.0000 0.0000
20450.0000 0.0001
20460.0000 0.0002
20470.0000 0.0004
20480.0000 0.0005
20490.0000 0.0003
20500.0000 0.0000
20510.0000 0.0000
20520.0000 0.0000
20530.0000 0.0007
20540.0000 0.0013
20550.0000 0.0007
20560.0000 0.0000
20570.0000 0.0000
20580.0000 0.0000
20590.0000 0.0005
20600.0000 0.0010
20610.0000 0.0008
20620.0000 0.0006
20630.0000 0.0003
20640.0000 0.0000
20650.0000 0.0003
20660.0000 0.0006
20670.0000 0.0004
20680.0000 0.0002
20690.0000 0.0001
20700.0000 0.0000
20710.0000 0.0002
20720.0000 0.0003
20730.0000 0.0002
20740.0000 0.0000
20750.0000 0.0000
20760.0000 0.0000
20770.0000 0.0004
20780.0000 0.0008
20790.0000 0.0006
20800.0000 0.0004
20810.0000 0.0002
20820.0000 0.0000
20830.0000 0.0005
20840.0000 0.0009
20850.0000 0.0006
20860.0000 0.0003
20870.0000 0.0002
20880.0000 0.0000
20890.0000 0.0003
20900.0000 0.0005
20910.0000 0.0006
20920.0000 0.0006
20930.0000 0.0003
20940.0000 0.0000
20950.0000 0.0002
20960.0000 0.0003
20970.0000 0.0002
20980.0000 0.0000
20990.0000 0.0000
21000.0000 0.0000
21010.0000 0.0003
21020.0000 0.0006
21030.0000 0.0009
21040.0000 0.0011
21050.0000 0.0006
21060.0000 0.0000
21070.0000 0.0003
21080.0000 0.0006
21090.0000 0.0006
21100.0000 0.0005
21110.0000 0.0003
21120.0000 0.0000
21130.0000 0.0002
21140.0000 0.0003
21150.0000 0.0005
21160.0000 0.0007
21170.0000 0.0004
21180.0000 0.0000
21190.0000 0.0001
21200.0000 0.0001
21210.0000 0.0001
21220.0000 0.0000
21230.0000 0.0000
21240.0000 0.0000
21250.0000 0.0004
21260.0000 0.0007
21270.0000 0.0010
21280.0000 0.0012
21290.0000 0.0006
21300.0000 0.0000
21310.0000 0.0002
21320.0000 0.0003
21330.0000 0.0006
21340.0000 0.0009
21350.0000 0.0005
21360.0000 0.0000
21370.0000 0.0003
21380.0000 0.0006
21390.0000 0.0009
21400.0000 0.0012
21410.0000 0.0001
21420.0000 -0.0010
21430.0000 -0.0005
21440.0000 0.0000
21450.0000 0.0002
21460.0000 0.0004
21470.0000 0.0002
21480.0000 0.0000
21490.0000 0.0002
21500.0000 0.0004
21510.0000 0.0008
21520.0000 0.0012
21530.0000 0.0006
21540.0000 0.0000
21550.0000 0.0001
21560.0000 0.0002
21570.0000 0.0002
21580.0000 0.0002
21590.0000 0.0001
21600.0000 0.0000
21610.0000 -0.0005
21620.0000 -0.0010
21630.0000 -0.0004
21640.0000 0.0002
21650.0000 0.0001
21660.0000 0.0000
21670.0000 0.0000
21680.0000 0.0000
21690.0000 0.0000
21700.0000 0.0000
21710.0000 0.0000
21720.0000 0.0000
21730.0000 -0.0005
21740.0000 -0.0010
21750.0000 -0.0004
21760.0000 0.0003
21770.0000 0.0002
21780.0000 0.0000
21790.0000 0.0000
21800.0000 0.0000
21810.0000 0.0004
21820.0000 0.0007
21830.0000 0.0004
21840.0000 0.0000
21850.0000 0.0000
21860.0000 0.0000
21870.0000 0.0007
21880.0000 0.0013
21890.0000 0.0008
21900.0000 0.0002
21910.0000 0.0001
21920.0000 0.0000
21930.0000 0.0004
21940.0000 0.0007
21950.0000 -0.0002
21960.0000 -0.0010
21970.0000 -0.0010
21980.0000 -0.0010
21990.0000 0.0004
22000.0000 0.0018
22010.0000 0.0004
22020.0000 -0.0010
22030.0000 -0.0010
22040.0000 -0.0010
22050.0000 0.0002
22060.0000 0.0014
22070.0000 0.0007
22080.0000 0.0000
22090.0000 -0.0005
22100.0000 -0.0010
22110.0000 -0.0003
22120.0000 0.0005
22130.0000 0.0007
22140.0000 0.0008
22150.0000 0.0004
22160.0000 0.0000
22170.0000 0.0015
22180.0000 0.0030
22190.0000 0.0017
22200.0000 0.0004
22210.0000 0.0002
22220.0000 0.0000
22230.0000 0.0009
22240.0000 0.0018
22250.0000 0.0011
22260.0000 0.0003
22270.0000 0.0004
22280.0000 0.0005
22290.0000 0.0016
22300.0000 0.0026
22310.0000 0.0013
22320.0000 0.0000
22330.0000 0.0002
22340.0000 0.0003
22350.0000 0.0017
22360.0000 0.0031
22370.0000 0.0023
22380.0000 0.0015
22390.0000 0.0003
22400.0000 -0.0010
22410.0000 0.0012
22420.0000 0.0034
22430.0000 0.0028
22440.0000 0.0022
22450.0000 0.0012
22460.0000 0.0001
22470.0000 0.0018
22480.0000 0.0034
22490.0000 0.0020
22500.0000 0.0005
22510.0000 -0.0003
22520.0000 -0.0010
22530.0000 -0.0001
22540.0000 0.0009
22550.0000 0.0007
22560.0000 0.0004
22570.0000 -0.0003
22580.0000 -0.0010
22590.0000 0.0005
22600.0000 0.0019
22610.0000 0.0012
22620.0000 0.0004
22630.0000 -0.0003
22640.0000 -0.0010
22650.0000 0.0006
22660.0000 0.0022
22670.0000 0.0015
22680.0000 0.0008
22690.0000 -0.0006
22700.0000 -0.0020
22710.0000 0.0000
22720.0000 0.0021
22730.0000 0.0011
22740.0000 0.0000
22750.0000 -0.0015
22760.0000 -0.0030
22770.0000 -0.0003
22780.0000 0.0025
22790.0000 0.0013
22800.0000 0.0000
22810.0000 -0.0015
22820.0000 -0.0030
22830.0000 -0.0002
22840.0000 0.0026
22850.0000 0.0017
22860.0000 0.0007
22870.0000 -0.0007
22880.0000 -0.0020
22890.0000 -0.0005
22900.0000 0.0010
22910.0000 0.0000
22920.0000 -0.0010
22930.0000 -0.0010
22940.0000 -0.0010
22950.0000 0.0002
22960.0000 0.0014
22970.0000 0.0002
22980.0000 -0.0010
22990.0000 -0.0010
23000.0000 -0.0010
23010.0000 0.0005
23020.0000 0.0020
23030.0000 0.0011
23040.0000 0.0002
23050.0000 -0.0009
23060.0000 -0.0020
23070.0000 0.0002
23080.0000 0.0024
23090.0000 0.0013
23100.0000 0.0001
23110.0000 0.0001
23120.0000 0.0000
23130.0000 0.0011
23140.0000 0.0021
23150.0000 0.0012
23160.0000 0.0003
23170.0000 0.0002
23180.0000 0.0000
23190.0000 0.0001
23200.0000 0.0002
23210.0000 0.0006
23220.0000 0.0010
23230.0000 0.0008
23240.0000 0.0005
23250.0000 0.0008
23260.0000 0.0011
23270.0000 0.0006
23280.0000 0.0000
23290.0000 0.0003
23300.0000 0.0006
23310.0000 0.0006
23320.0000 0.0005
23330.0000 0.0006
23340.0000 0.0007
23350.0000 0.0011
23360.0000 0.0015
23370.0000 0.0012
23380.0000 0.0008
23390.0000 0.0006
23400.0000 0.0004
23410.0000 -0.0003
23420.0000 -0.0010
23430.0000 -0.0005
23440.0000 0.0000
23450.0000 0.0003
23460.0000 0.0006
23470.0000 0.0005
23480.0000 0.0003
23490.0000 0.0002
23500.0000 0.0000
23510.0000 0.0000
23520.0000 0.0000
23530.0000 0.0000
23540.0000 0.0000
23550.0000 0.0004
23560.0000 0.0008
23570.0000 0.0007
23580.0000 0.0005
23590.0000 0.0003
23600.0000 0.0001
23610.0000 0.0001
23620.0000 0.0000
23630.0000 0.0000
23640.0000 0.0000
23650.0000 0.0001
23660.0000 0.0001
23670.0000 -0.0005
23680.0000 -0.0010
23690.0000 -0.0005
23700.0000 0.0000
23710.0000 0.0004
23720.0000 0.0007
23730.0000 0.0004
23740.0000 0.0001
23750.0000 0.0013
23760.0000 0.0024
23770.0000 0.0018
23780.0000 0.0011
23790.0000 0.0007
23800.0000 0.0002
23810.0000 0.0009
23820.0000 0.0015
23830.0000 0.0017
23840.0000 0.0018
23850.0000 0.0004
23860.0000 -0.0010
23870.0000 -0.0010
23880.0000 -0.0010
23890.0000 0.0003
23900.0000 0.0016
23910.0000 0.0008
23920.0000 0.0000
23930.0000 0.0004
23940.0000 0.0008
23950.0000 0.0006
23960.0000 0.0003
23970.0000 -0.0004
23980.0000 -0.0010
23990.0000 -0.0003
24000.0000 0.0004
24010.0000 0.0002
24020.0000 0.0000
24030.0000 0.0000
24040.0000 0.0000
24050.0000 0.0000
24060.0000 0.0000
24070.0000 0.0001
24080.0000 0.0002
24090.0000 -0.0004
24100.0000 -0.0010
24110.0000 -0.0001
24120.0000 0.0009
24130.0000 -0.0001
24140.0000 -0.0010
24150.0000 -0.0001
24160.0000 0.0009
24170.0000 0.0014
24180.0000 0.0019
24190.0000 0.0005
24200.0000 -0.0010
24210.0000 -0.0005
24220.0000 0.0000
24230.0000 0.0008
24240.0000 0.0015
24250.0000 0.0009
24260.0000 0.0002
24270.0000 0.0010
24280.0000 0.0017
24290.0000 0.0011
24300.0000 0.0004
24310.0000 -0.0008
24320.0000 -0.0020
24330.0000 -0.0010
24340.0000 0.0001
24350.0000 0.0001
24360.0000 0.0000
24370.0000 -0.0010
24380.0000 -0.0020
24390.0000 -0.0010
24400.0000 0.0000
24410.0000 0.0002
24420.0000 0.0004
24430.0000 0.0002
24440.0000 0.0000
24450.0000 0.0004
24460.0000 0.0007
24470.0000 0.0016
24480.0000 0.0024
24490.0000 0.0025
24500.0000 0.0025
24510.0000 0.0018
24520.0000 0.0011
24530.0000 0.0015
24540.0000 0.0019
24550.0000 0.0015
24560.0000 0.0010
24570.0000 0.0018
24580.0000 0.0025
24590.0000 0.0008
24600.0000 -0.0010
24610.0000 -0.0010
24620.0000 -0.0010
24630.0000 0.0005
24640.0000 0.0020
24650.0000 0.0012
24660.0000 0.0003
24670.0000 -0.0009
24680.0000 -0.0020
24690.0000 -0.0010
24700.0000 0.0000
24710.0000 -0.0015
24720.0000 -0.0030
24730.0000 -0.0020
24740.0000 -0.0010
24750.0000 -0.0005
24760.0000 0.0000
24770.0000 -0.0005
24780.0000 -0.0010
24790.0000 -0.0005
24800.0000 0.0000
24810.0000 0.0035
24820.0000 0.0069
24830.0000 0.0087
24840.0000 0.0105
24850.0000 0.0072
24860.0000 0.0039
24870.0000 0.0031
24880.0000 0.0023
24890.0000 -0.0004
24900.0000 -0.0030
24910.0000 -0.0015
24920.0000 0.0000
24930.0000 -0.0005
24940.0000 -0.0010
24950.0000 -0.0015
24960.0000 -0.0020
24970.0000 -0.0009
24980.0000 0.0002
24990.0000 0.0003
25000.0000 0.0004
25031.3000 0.0112
25062.7000 0.0154
25094.1000 0.0090
25125.6000 0.0374
25157.2000 0.0211
25188.9000 -0.0101
25220.7000 0.0111
25252.5000 0.0499
25284.5000 -0.0123
25316.5000 -0.0142
25348.5000 -0.0239
25380.7000 -0.0103
25413.0000 0.0147
25445.3000 -0.0012
25477.7000 0.0101
25510.2000 -0.0309
25542.8000 0.0321
25575.4000 -0.0116
25608.2000 0.0257
25641.0000 0.0013
25673.9000 0.0023
25706.9000 0.0149
25740.0000 -0.0052
25773.2000 0.0148
25806.5000 -0.0083
25839.8000 -0.0406
25873.2000 0.0181
25906.7000 -0.0088
25940.3000 -0.0031
25974.0000 -0.0067
26007.8000 0.0374
26041.7000 -0.0048
26075.6000 0.0208
26109.7000 0.0358
26143.8000 0.0252
26178.0000 -0.0024
26212.3000 0.0254
26246.7000 0.0459
26281.2000 0.0254
26315.8000 0.0066
26350.5000 0.0033
26385.2000 -0.0039
26420.1000 -0.0281
26455.0000 0.0053
26490.1000 0.0052
26525.2000 0.0152
26560.4000 0.0349
26595.7000 0.0332
26631.2000 -0.0156
26666.7000 -0.0207
26702.3000 0.0405
26738.0000 0.0214
26773.8000 -0.0079
26809.7000 0.0264
26845.6000 0.0208
26881.7000 -0.0308
26917.9000 -0.0096
26954.2000 0.0357
26990.6000 0.0319
27027.0000 -0.0171
27063.6000 -0.0187
27100.3000 0.0292
27137.0000 -0.0010
27173.9000 0.0087
27210.9000 0.0352
27248.0000 -0.0155
27285.1000 -0.0008
27322.4000 0.0086
27359.8000 -0.0088
27397.3000 0.0077
27434.8000 0.0293
27472.5000 -0.0066
27510.3000 -0.0058
27548.2000 -0.0196
27586.2000 -0.0285
27624.3000 0.0061
27662.5000 0.0306
27700.8000 0.0312
27739.3000 -0.0013
27777.8000 -0.0095
27816.4000 -0.0152
27855.2000 -0.0343
27894.0000 -0.0066
27933.0000 -0.0278
27972.0000 -0.0011
28011.2000 -0.0152
28050.5000 0.0129
28089.9000 0.0261
28129.4000 -0.0225
28169.0000 -0.0252
28208.7000 0.0356
28248.6000 0.0259
28288.5000 0.0033
28328.6000 -0.0026
28368.8000 0.0071
28409.1000 0.0165
28449.5000 -0.0069
28490.0000 0.0308
28530.7000 0.0162
28571.4000 -0.0050
28612.3000 -0.0108
28653.3000 -0.0203
28694.4000 0.0074
28735.6000 0.0011
28777.0000 0.0479
28818.4000 -0.0096
28860.0000 0.0229
28901.7000 -0.0021
28943.6000 0.0056
28985.5000 -0.0203
29027.6000 0.0040
29069.8000 -0.0127
29112.1000 0.0200
29154.5000 0.0096
29197.1000 0.0118
29239.8000 -0.0152
29282.6000 -0.0279
29325.5000 0.0120
29368.6000 0.0164
29411.8000 -0.0194
29455.1000 -0.0007
29498.5000 0.0128
29542.1000 0.0072
29585.8000 0.0290
29629.6000 0.0102
29673.6000 0.0234
29717.7000 0.0437
29761.9000 0.0095
29806.3000 0.0216
29850.7000 0.0341
29895.4000 0.0693
29940.1000 0.0378
29985.0000 0.0900
30030.0000 0.0522
30075.2000 0.0736
30120.5000 0.0873
30165.9000 0.0491
30211.5000 0.0918
30257.2000 0.1157
30303.0000 0.1592
30349.0000 0.1816
30395.1000 0.2378
30441.4000 0.2735
30487.8000 0.3453
30534.4000 0.4286
30581.0000 0.5331
30627.9000 0.6510
30674.8000 0.8255
30722.0000 1.1918
30769.2000 1.6173
30816.6000 2.1216
30864.2000 2.7416
30911.9000 3.4830
30959.8000 3.8105
31007.8000 3.4667
31055.9000 2.7947
31104.2000 2.2612
31152.6000 1.7382
31201.2000 1.2398
31250.0000 0.9232
31298.9000 0.8343
31348.0000 0.6777
31397.2000 0.5291
31446.5000 0.4545
31496.1000 0.4314
31545.7000 0.3753
31595.6000 0.3251
31645.6000 0.2860
31695.7000 0.2784
31746.0000 0.2805
31796.5000 0.2122
31847.1000 0.2058
31897.9000 0.2007
31948.9000 0.1853
32000.0000 0.1957
