# Units : 
#   wavelength in Angstroms 
#   transmission in %
# Bandpass Name : H
# Instrument : VISTA/VIRCAM
# Determined by : Unknown
# References : 
#   https://www.eso.org/sci/facilities/paranal/decommissioned/vircam/inst.html
#   https://astro.pas.rochester.edu/IR-camera/papers/CMcMurtry-SPIEv5902-2005-VIRGO.pdf
# Notes :
#   Includes filter transmission ONLY.
#   This file is a copy of 'VISTA_Filters_at80K_forETC_H.dat' from ESO's 
#   'Filters_QE_Atm_curves.tar' with wavelength converted to Angstroms.
#   Prior to April 2025, this was 'vista_vircam_H.par' in sedpy.
#
# wavelength transmission
5000.0000 0.0004
5010.0000 0.0004
5020.0000 0.0004
5030.0000 0.0004
5040.0000 0.0002
5050.0000 0.0000
5060.0000 0.0000
5070.0000 0.0001
5080.0000 0.0000
5090.0000 0.0000
5100.0000 0.0002
5110.0000 0.0003
5120.0000 0.0002
5130.0000 0.0000
5140.0000 0.0000
5150.0000 0.0003
5160.0000 0.0002
5170.0000 0.0001
5180.0000 0.0000
5190.0000 0.0000
5200.0000 0.0000
5210.0000 0.0001
5220.0000 0.0002
5230.0000 0.0001
5240.0000 0.0000
5250.0000 0.0000
5260.0000 0.0000
5270.0000 0.0000
5280.0000 0.0000
5290.0000 0.0000
5300.0000 0.0001
5310.0000 0.0000
5320.0000 0.0000
5330.0000 0.0000
5340.0000 0.0000
5350.0000 0.0000
5360.0000 0.0000
5370.0000 0.0000
5380.0000 0.0000
5390.0000 0.0000
5400.0000 0.0001
5410.0000 0.0001
5420.0000 0.0000
5430.0000 0.0003
5440.0000 0.0003
5450.0000 0.0004
5460.0000 0.0005
5470.0000 0.0001
5480.0000 0.0000
5490.0000 0.0000
5500.0000 0.0000
5510.0000 0.0000
5520.0000 0.0000
5530.0000 0.0000
5540.0000 0.0000
5550.0000 0.0000
5560.0000 0.0000
5570.0000 0.0000
5580.0000 0.0000
5590.0000 0.0000
5600.0000 0.0001
5610.0000 0.0004
5620.0000 0.0003
5630.0000 0.0000
5640.0000 0.0000
5650.0000 0.0000
5660.0000 0.0000
5670.0000 0.0001
5680.0000 0.0001
5690.0000 0.0001
5700.0000 0.0000
5710.0000 0.0000
5720.0000 0.0000
5730.0000 0.0000
5740.0000 0.0000
5750.0000 0.0000
5760.0000 0.0000
5770.0000 0.0001
5780.0000 0.0000
5790.0000 0.0001
5800.0000 0.0000
5810.0000 0.0000
5820.0000 0.0000
5830.0000 0.0000
5840.0000 0.0000
5850.0000 0.0000
5860.0000 0.0000
5870.0000 0.0000
5880.0000 0.0001
5890.0000 0.0000
5900.0000 0.0000
5910.0000 0.0000
5920.0000 0.0005
5930.0000 0.0000
5940.0000 0.0000
5950.0000 0.0001
5960.0000 0.0000
5970.0000 0.0000
5980.0000 0.0000
5990.0000 0.0000
6000.0000 0.0002
6010.0000 0.0000
6020.0000 0.0000
6030.0000 0.0000
6040.0000 0.0000
6050.0000 0.0000
6060.0000 0.0000
6070.0000 0.0000
6080.0000 0.0000
6090.0000 0.0000
6100.0000 0.0000
6110.0000 0.0000
6120.0000 0.0000
6130.0000 0.0000
6140.0000 0.0000
6150.0000 0.0000
6160.0000 0.0001
6170.0000 0.0000
6180.0000 0.0000
6190.0000 0.0001
6200.0000 0.0000
6210.0000 0.0000
6220.0000 0.0000
6230.0000 0.0000
6240.0000 0.0000
6250.0000 0.0000
6260.0000 0.0000
6270.0000 0.0000
6280.0000 0.0000
6290.0000 0.0000
6300.0000 0.0000
6310.0000 0.0002
6320.0000 0.0000
6330.0000 0.0000
6340.0000 0.0001
6350.0000 0.0001
6360.0000 0.0003
6370.0000 0.0001
6380.0000 0.0001
6390.0000 0.0000
6400.0000 0.0000
6410.0000 0.0000
6420.0000 0.0001
6430.0000 0.0001
6440.0000 0.0000
6450.0000 0.0000
6460.0000 0.0000
6470.0000 0.0001
6480.0000 0.0000
6490.0000 0.0001
6500.0000 0.0000
6510.0000 0.0000
6520.0000 0.0000
6530.0000 0.0003
6540.0000 0.0001
6550.0000 0.0000
6560.0000 0.0001
6570.0000 0.0000
6580.0000 0.0000
6590.0000 0.0000
6600.0000 0.0000
6610.0000 0.0000
6620.0000 0.0005
6630.0000 0.0002
6640.0000 0.0001
6650.0000 0.0000
6660.0000 0.0001
6670.0000 0.0000
6680.0000 0.0001
6690.0000 0.0000
6700.0000 0.0000
6710.0000 0.0000
6720.0000 0.0000
6730.0000 0.0000
6740.0000 0.0000
6750.0000 0.0000
6760.0000 0.0000
6770.0000 0.0001
6780.0000 0.0000
6790.0000 0.0002
6800.0000 0.0000
6810.0000 0.0001
6820.0000 0.0001
6830.0000 0.0003
6840.0000 0.0000
6850.0000 0.0000
6860.0000 0.0002
6870.0000 0.0006
6880.0000 0.0021
6890.0000 0.0030
6900.0000 0.0003
6910.0000 0.0001
6920.0000 0.0003
6930.0000 0.0000
6940.0000 0.0002
6950.0000 0.0000
6960.0000 0.0002
6970.0000 0.0000
6980.0000 0.0003
6990.0000 0.0000
7000.0000 0.0003
7010.0000 0.0000
7020.0000 0.0000
7030.0000 0.0000
7040.0000 0.0001
7050.0000 0.0003
7060.0000 0.0002
7070.0000 0.0004
7080.0000 0.0001
7090.0000 0.0004
7100.0000 0.0002
7110.0000 0.0008
7120.0000 0.0002
7130.0000 0.0005
7140.0000 0.0001
7150.0000 0.0007
7160.0000 0.0006
7170.0000 0.0005
7180.0000 0.0005
7190.0000 0.0002
7200.0000 0.0004
7210.0000 0.0002
7220.0000 0.0009
7230.0000 0.0003
7240.0000 0.0005
7250.0000 0.0001
7260.0000 0.0005
7270.0000 0.0001
7280.0000 0.0001
7290.0000 0.0003
7300.0000 0.0002
7310.0000 0.0000
7320.0000 0.0000
7330.0000 0.0004
7340.0000 0.0000
7350.0000 0.0001
7360.0000 0.0000
7370.0000 0.0000
7380.0000 0.0000
7390.0000 0.0002
7400.0000 0.0000
7410.0000 0.0000
7420.0000 0.0000
7430.0000 0.0000
7440.0000 0.0000
7450.0000 0.0000
7460.0000 0.0000
7470.0000 0.0000
7480.0000 0.0002
7490.0000 0.0000
7500.0000 0.0001
7510.0000 0.0000
7520.0000 0.0000
7530.0000 0.0000
7540.0000 0.0000
7550.0000 0.0000
7560.0000 0.0000
7570.0000 0.0002
7580.0000 0.0000
7590.0000 0.0000
7600.0000 0.0000
7610.0000 0.0000
7620.0000 0.0000
7630.0000 0.0004
7640.0000 0.0000
7650.0000 0.0000
7660.0000 0.0000
7670.0000 0.0000
7680.0000 0.0000
7690.0000 0.0000
7700.0000 0.0000
7710.0000 0.0000
7720.0000 0.0001
7730.0000 0.0000
7740.0000 0.0000
7750.0000 0.0000
7760.0000 0.0000
7770.0000 0.0000
7780.0000 0.0002
7790.0000 0.0000
7800.0000 0.0002
7810.0000 0.0000
7820.0000 0.0000
7830.0000 0.0000
7840.0000 0.0000
7850.0000 0.0000
7860.0000 0.0000
7870.0000 0.0000
7880.0000 0.0000
7890.0000 0.0000
7900.0000 0.0000
7910.0000 0.0000
7920.0000 0.0000
7930.0000 0.0000
7940.0000 0.0000
7950.0000 0.0000
7960.0000 0.0000
7970.0000 0.0000
7980.0000 0.0000
7990.0000 0.0000
8000.0000 0.0000
8010.0000 0.0000
8020.0000 0.0000
8030.0000 0.0000
8040.0000 0.0005
8050.0000 0.0012
8060.0000 0.0040
8070.0000 0.0090
8080.0000 0.0169
8090.0000 0.0085
8100.0000 0.0000
8110.0000 0.0000
8120.0000 0.0000
8130.0000 0.0000
8140.0000 0.0000
8150.0000 0.0000
8160.0000 0.0000
8170.0000 0.0000
8180.0000 0.0000
8190.0000 -0.0010
8200.0000 -0.0010
8210.0000 0.0000
8220.0000 -0.0010
8230.0000 -0.0010
8240.0000 -0.0020
8250.0000 -0.0020
8260.0000 -0.0030
8270.0000 -0.0020
8280.0000 -0.0030
8290.0000 -0.0030
8300.0000 -0.0050
8310.0000 -0.0040
8320.0000 -0.0060
8330.0000 -0.0060
8340.0000 -0.0060
8350.0000 -0.0070
8360.0000 -0.0070
8370.0000 -0.0080
8380.0000 -0.0080
8390.0000 -0.0090
8400.0000 -0.0090
8410.0000 -0.0090
8420.0000 -0.0090
8430.0000 -0.0090
8440.0000 -0.0090
8450.0000 -0.0090
8460.0000 -0.0090
8470.0000 -0.0090
8480.0000 -0.0090
8490.0000 -0.0100
8500.0000 -0.0090
8510.0000 -0.0100
8520.0000 -0.0100
8530.0000 -0.0100
8540.0000 -0.0090
8550.0000 -0.0060
8560.0000 -0.0090
8570.0000 0.0398
8580.0000 0.0823
8590.0000 0.1786
8600.0000 0.0517
8610.0000 -0.0010
8620.0000 0.0047
8630.0000 0.0060
8640.0000 0.0005
8650.0000 0.0010
8660.0000 0.0006
8670.0000 -0.0010
8680.0000 0.0023
8690.0000 0.0017
8700.0000 -0.0010
8710.0000 0.0025
8720.0000 0.0001
8730.0000 -0.0030
8740.0000 0.0008
8750.0000 0.0029
8760.0000 0.0000
8770.0000 0.0010
8780.0000 -0.0030
8790.0000 -0.0030
8800.0000 0.0027
8810.0000 0.0027
8820.0000 0.0000
8830.0000 0.0036
8840.0000 0.0010
8850.0000 0.0000
8860.0000 0.0027
8870.0000 0.0003
8880.0000 -0.0030
8890.0000 0.0016
8900.0000 -0.0010
8910.0000 -0.0020
8920.0000 0.0018
8930.0000 0.0005
8940.0000 -0.0010
8950.0000 0.0026
8960.0000 0.0001
8970.0000 0.0000
8980.0000 0.0017
8990.0000 0.0012
9000.0000 -0.0010
9010.0000 0.0017
9020.0000 0.0000
9030.0000 -0.0010
9040.0000 0.0027
9050.0000 0.0023
9060.0000 -0.0010
9070.0000 0.0008
9080.0000 0.0000
9090.0000 -0.0010
9100.0000 0.0003
9110.0000 0.0005
9120.0000 0.0000
9130.0000 0.0016
9140.0000 0.0000
9150.0000 0.0000
9160.0000 0.0011
9170.0000 0.0005
9180.0000 0.0000
9190.0000 0.0008
9200.0000 -0.0020
9210.0000 0.0009
9220.0000 0.0014
9230.0000 0.0000
9240.0000 0.0003
9250.0000 0.0015
9260.0000 0.0000
9270.0000 0.0015
9280.0000 0.0016
9290.0000 0.0000
9300.0000 0.0003
9310.0000 0.0011
9320.0000 -0.0010
9330.0000 0.0011
9340.0000 0.0006
9350.0000 0.0000
9360.0000 0.0006
9370.0000 0.0020
9380.0000 0.0002
9390.0000 0.0026
9400.0000 0.0015
9410.0000 0.0002
9420.0000 0.0005
9430.0000 0.0014
9440.0000 0.0001
9450.0000 0.0015
9460.0000 0.0014
9470.0000 0.0000
9480.0000 0.0006
9490.0000 0.0009
9500.0000 0.0000
9510.0000 0.0008
9520.0000 0.0005
9530.0000 0.0001
9540.0000 0.0007
9550.0000 0.0009
9560.0000 0.0000
9570.0000 0.0009
9580.0000 0.0013
9590.0000 0.0002
9600.0000 0.0003
9610.0000 0.0009
9620.0000 0.0001
9630.0000 0.0013
9640.0000 0.0010
9650.0000 0.0000
9660.0000 0.0006
9670.0000 0.0011
9680.0000 0.0000
9690.0000 0.0008
9700.0000 0.0003
9710.0000 0.0000
9720.0000 0.0001
9730.0000 0.0003
9740.0000 0.0000
9750.0000 0.0009
9760.0000 0.0010
9770.0000 0.0002
9780.0000 0.0005
9790.0000 0.0007
9800.0000 0.0000
9810.0000 0.0008
9820.0000 0.0002
9830.0000 0.0000
9840.0000 0.0000
9850.0000 0.0003
9860.0000 0.0000
9870.0000 0.0006
9880.0000 0.0005
9890.0000 0.0000
9900.0000 0.0001
9910.0000 0.0003
9920.0000 0.0000
9930.0000 0.0001
9940.0000 0.0000
9950.0000 0.0000
9960.0000 0.0003
9970.0000 0.0006
9980.0000 0.0000
9990.0000 0.0003
10000.0000 0.0002
10010.0000 0.0002
10020.0000 0.0004
10030.0000 0.0003
10040.0000 0.0000
10050.0000 0.0000
10060.0000 0.0001
10070.0000 0.0000
10080.0000 0.0000
10090.0000 0.0002
10100.0000 0.0000
10110.0000 0.0005
10120.0000 0.0003
10130.0000 0.0000
10140.0000 0.0000
10150.0000 0.0002
10160.0000 0.0000
10170.0000 0.0000
10180.0000 0.0001
10190.0000 0.0000
10200.0000 0.0000
10210.0000 0.0000
10220.0000 0.0000
10230.0000 0.0004
10240.0000 0.0001
10250.0000 0.0000
10260.0000 0.0000
10270.0000 0.0001
10280.0000 0.0000
10290.0000 0.0003
10300.0000 0.0003
10310.0000 0.0003
10320.0000 0.0004
10330.0000 0.0003
10340.0000 0.0000
10350.0000 0.0002
10360.0000 0.0000
10370.0000 0.0000
10380.0000 0.0001
10390.0000 0.0003
10400.0000 0.0001
10410.0000 0.0002
10420.0000 0.0003
10430.0000 0.0002
10440.0000 0.0001
10450.0000 0.0000
10460.0000 0.0000
10470.0000 0.0003
10480.0000 0.0000
10490.0000 0.0001
10500.0000 0.0006
10510.0000 0.0005
10520.0000 0.0002
10530.0000 0.0001
10540.0000 0.0002
10550.0000 0.0004
10560.0000 0.0003
10570.0000 0.0000
10580.0000 0.0000
10590.0000 0.0001
10600.0000 0.0000
10610.0000 0.0000
10620.0000 0.0000
10630.0000 0.0002
10640.0000 0.0002
10650.0000 0.0000
10660.0000 0.0000
10670.0000 0.0000
10680.0000 0.0001
10690.0000 0.0002
10700.0000 0.0000
10710.0000 0.0001
10720.0000 0.0002
10730.0000 0.0000
10740.0000 0.0000
10750.0000 0.0000
10760.0000 0.0003
10770.0000 0.0000
10780.0000 0.0000
10790.0000 0.0000
10800.0000 0.0002
10810.0000 0.0003
10820.0000 0.0000
10830.0000 0.0000
10840.0000 0.0001
10850.0000 0.0000
10860.0000 0.0001
10870.0000 0.0000
10880.0000 0.0000
10890.0000 0.0001
10900.0000 0.0001
10910.0000 0.0003
10920.0000 0.0002
10930.0000 0.0000
10940.0000 0.0000
10950.0000 0.0000
10960.0000 0.0002
10970.0000 0.0001
10980.0000 0.0000
10990.0000 0.0000
11000.0000 0.0000
11010.0000 0.0000
11020.0000 0.0003
11030.0000 0.0002
11040.0000 0.0003
11050.0000 0.0003
11060.0000 0.0000
11070.0000 0.0000
11080.0000 0.0000
11090.0000 0.0000
11100.0000 0.0000
11110.0000 0.0002
11120.0000 0.0003
11130.0000 0.0003
11140.0000 0.0002
11150.0000 0.0002
11160.0000 0.0002
11170.0000 0.0000
11180.0000 0.0000
11190.0000 0.0000
11200.0000 0.0002
11210.0000 0.0004
11220.0000 0.0004
11230.0000 0.0005
11240.0000 0.0005
11250.0000 0.0002
11260.0000 0.0000
11270.0000 0.0000
11280.0000 0.0000
11290.0000 0.0000
11300.0000 0.0001
11310.0000 0.0004
11320.0000 0.0003
11330.0000 0.0002
11340.0000 0.0003
11350.0000 0.0002
11360.0000 0.0003
11370.0000 0.0000
11380.0000 0.0000
11390.0000 0.0000
11400.0000 0.0002
11410.0000 0.0003
11420.0000 0.0004
11430.0000 0.0002
11440.0000 0.0001
11450.0000 0.0001
11460.0000 0.0000
11470.0000 0.0001
11480.0000 0.0000
11490.0000 0.0000
11500.0000 0.0007
11510.0000 0.0005
11520.0000 0.0002
11530.0000 0.0005
11540.0000 0.0000
11550.0000 0.0000
11560.0000 0.0000
11570.0000 0.0000
11580.0000 0.0000
11590.0000 0.0000
11600.0000 0.0004
11610.0000 0.0005
11620.0000 0.0003
11630.0000 0.0002
11640.0000 0.0002
11650.0000 0.0005
11660.0000 0.0006
11670.0000 0.0007
11680.0000 0.0006
11690.0000 0.0001
11700.0000 0.0000
11710.0000 0.0000
11720.0000 0.0000
11730.0000 0.0000
11740.0000 0.0000
11750.0000 0.0000
11760.0000 0.0000
11770.0000 0.0000
11780.0000 0.0005
11790.0000 0.0005
11800.0000 0.0006
11810.0000 0.0003
11820.0000 0.0004
11830.0000 0.0003
11840.0000 0.0004
11850.0000 0.0003
11860.0000 0.0003
11870.0000 0.0004
11880.0000 0.0004
11890.0000 0.0003
11900.0000 0.0000
11910.0000 0.0000
11920.0000 0.0000
11930.0000 0.0004
11940.0000 0.0000
11950.0000 0.0005
11960.0000 0.0007
11970.0000 0.0005
11980.0000 0.0005
11990.0000 0.0006
12000.0000 0.0008
12010.0000 0.0006
12020.0000 0.0005
12030.0000 0.0005
12040.0000 0.0010
12050.0000 0.0008
12060.0000 0.0001
12070.0000 0.0002
12080.0000 0.0000
12090.0000 0.0000
12100.0000 0.0003
12110.0000 0.0000
12120.0000 0.0000
12130.0000 0.0001
12140.0000 0.0000
12150.0000 0.0004
12160.0000 0.0004
12170.0000 0.0005
12180.0000 0.0003
12190.0000 0.0002
12200.0000 0.0003
12210.0000 0.0006
12220.0000 0.0008
12230.0000 0.0007
12240.0000 0.0003
12250.0000 0.0005
12260.0000 0.0008
12270.0000 0.0010
12280.0000 0.0009
12290.0000 0.0005
12300.0000 0.0004
12310.0000 0.0008
12320.0000 0.0009
12330.0000 0.0009
12340.0000 0.0006
12350.0000 0.0000
12360.0000 0.0000
12370.0000 0.0001
12380.0000 0.0001
12390.0000 0.0000
12400.0000 0.0004
12410.0000 0.0000
12420.0000 0.0000
12430.0000 0.0002
12440.0000 0.0000
12450.0000 0.0000
12460.0000 0.0003
12470.0000 0.0000
12480.0000 0.0000
12490.0000 0.0000
12500.0000 0.0000
12510.0000 0.0000
12520.0000 0.0003
12530.0000 0.0005
12540.0000 0.0003
12550.0000 0.0002
12560.0000 0.0007
12570.0000 0.0009
12580.0000 0.0008
12590.0000 0.0006
12600.0000 0.0006
12610.0000 0.0007
12620.0000 0.0008
12630.0000 0.0008
12640.0000 0.0007
12650.0000 0.0002
12660.0000 0.0000
12670.0000 0.0000
12680.0000 0.0001
12690.0000 0.0001
12700.0000 0.0000
12710.0000 0.0000
12720.0000 0.0005
12730.0000 0.0007
12740.0000 0.0008
12750.0000 0.0009
12760.0000 0.0010
12770.0000 0.0009
12780.0000 0.0011
12790.0000 0.0012
12800.0000 0.0011
12810.0000 0.0006
12820.0000 0.0003
12830.0000 0.0006
12840.0000 0.0007
12850.0000 0.0012
12860.0000 0.0013
12870.0000 0.0013
12880.0000 0.0011
12890.0000 0.0015
12900.0000 0.0019
12910.0000 0.0021
12920.0000 0.0018
12930.0000 0.0018
12940.0000 0.0015
12950.0000 0.0014
12960.0000 0.0015
12970.0000 0.0017
12980.0000 0.0018
12990.0000 0.0022
13000.0000 0.0026
13010.0000 0.0028
13020.0000 0.0031
13030.0000 0.0027
13040.0000 0.0028
13050.0000 0.0041
13060.0000 0.0058
13070.0000 0.0078
13080.0000 0.0097
13090.0000 0.0101
13100.0000 0.0082
13110.0000 0.0040
13120.0000 0.0003
13130.0000 0.0000
13140.0000 0.0000
13150.0000 0.0000
13160.0000 0.0000
13170.0000 0.0000
13180.0000 0.0000
13190.0000 0.0000
13200.0000 0.0000
13210.0000 -0.0010
13220.0000 -0.0010
13230.0000 -0.0010
13240.0000 -0.0010
13250.0000 -0.0010
13260.0000 -0.0010
13270.0000 0.0000
13280.0000 -0.0010
13290.0000 -0.0010
13300.0000 -0.0010
13310.0000 -0.0010
13320.0000 -0.0010
13330.0000 -0.0010
13340.0000 -0.0010
13350.0000 -0.0010
13360.0000 -0.0010
13370.0000 -0.0010
13380.0000 -0.0010
13390.0000 -0.0010
13400.0000 -0.0010
13410.0000 -0.0010
13420.0000 -0.0010
13430.0000 0.0000
13440.0000 0.0000
13450.0000 0.0000
13460.0000 0.0000
13470.0000 0.0003
13480.0000 0.0003
13490.0000 0.0008
13500.0000 0.0011
13510.0000 0.0013
13520.0000 0.0019
13530.0000 0.0019
13540.0000 0.0024
13550.0000 0.0028
13560.0000 0.0029
13570.0000 0.0028
13580.0000 0.0028
13590.0000 0.0028
13600.0000 0.0028
13610.0000 0.0028
13620.0000 0.0030
13630.0000 0.0031
13640.0000 0.0031
13650.0000 0.0031
13660.0000 0.0035
13670.0000 0.0037
13680.0000 0.0040
13690.0000 0.0038
13700.0000 0.0041
13710.0000 0.0041
13720.0000 0.0040
13730.0000 0.0042
13740.0000 0.0044
13750.0000 0.0039
13760.0000 0.0046
13770.0000 0.0044
13780.0000 0.0045
13790.0000 0.0048
13800.0000 0.0050
13810.0000 0.0050
13820.0000 0.0057
13830.0000 0.0057
13840.0000 0.0056
13850.0000 0.0061
13860.0000 0.0067
13870.0000 0.0068
13880.0000 0.0078
13890.0000 0.0077
13900.0000 0.0079
13910.0000 0.0085
13920.0000 0.0087
13930.0000 0.0093
13940.0000 0.0102
13950.0000 0.0102
13960.0000 0.0109
13970.0000 0.0122
13980.0000 0.0127
13990.0000 0.0138
14000.0000 0.0619
14010.0000 0.0408
14020.0000 -0.0440
14030.0000 -0.0230
14040.0000 0.0131
14050.0000 0.0840
14060.0000 0.0286
14070.0000 0.0045
14080.0000 -0.0750
14090.0000 0.0328
14100.0000 0.0000
14110.0000 0.0585
14120.0000 0.0114
14130.0000 -0.0290
14140.0000 0.0385
14150.0000 0.1362
14160.0000 0.0135
14170.0000 -0.0440
14180.0000 -0.0430
14190.0000 0.0297
14200.0000 0.0419
14210.0000 0.0596
14220.0000 0.1146
14230.0000 0.0020
14240.0000 0.0836
14250.0000 0.1698
14260.0000 0.1580
14270.0000 0.1106
14280.0000 -0.0120
14290.0000 0.0558
14300.0000 0.0821
14310.0000 0.1479
14320.0000 0.0924
14330.0000 0.2295
14340.0000 0.1479
14350.0000 0.1562
14360.0000 0.1779
14370.0000 0.2277
14380.0000 0.2401
14390.0000 0.3021
14400.0000 0.3063
14410.0000 0.2793
14420.0000 0.2633
14430.0000 0.2436
14440.0000 0.2887
14450.0000 0.3666
14460.0000 0.4107
14470.0000 0.4528
14480.0000 0.4152
14490.0000 0.2479
14500.0000 0.4827
14510.0000 0.5627
14520.0000 0.5117
14530.0000 0.4975
14540.0000 0.3983
14550.0000 0.6724
14560.0000 0.6780
14570.0000 0.7285
14580.0000 0.7516
14590.0000 0.8875
14600.0000 0.9238
14610.0000 1.0095
14620.0000 0.9817
14630.0000 0.9654
14640.0000 1.0953
14650.0000 1.2660
14660.0000 1.4414
14670.0000 1.4773
14680.0000 1.6973
14690.0000 1.7678
14700.0000 2.0131
14710.0000 2.2561
14720.0000 2.3878
14730.0000 2.6577
14740.0000 3.0127
14750.0000 3.2411
14760.0000 3.5526
14770.0000 3.9811
14780.0000 4.3953
14790.0000 4.9686
14800.0000 5.5056
14810.0000 6.1373
14820.0000 6.9916
14830.0000 7.8400
14840.0000 8.7439
14850.0000 9.9695
14860.0000 10.9680
14870.0000 12.4630
14880.0000 14.1090
14890.0000 15.7990
14900.0000 17.7160
14910.0000 19.8960
14920.0000 22.4160
14930.0000 25.0050
14940.0000 27.9440
14950.0000 31.0050
14960.0000 34.4520
14970.0000 38.1140
14980.0000 42.2830
14990.0000 46.1760
15000.0000 50.0900
15010.0000 54.6480
15020.0000 58.6200
15030.0000 62.6340
15040.0000 67.1020
15050.0000 70.8730
15060.0000 74.0880
15070.0000 77.8720
15080.0000 80.6880
15090.0000 82.5640
15100.0000 85.4810
15110.0000 87.1950
15120.0000 88.1380
15130.0000 89.5870
15140.0000 90.4410
15150.0000 90.1970
15160.0000 90.5610
15170.0000 90.8270
15180.0000 90.0470
15190.0000 89.7210
15200.0000 89.7530
15210.0000 88.5800
15220.0000 87.9510
15230.0000 87.8560
15240.0000 86.8250
15250.0000 86.0660
15260.0000 86.1900
15270.0000 85.2490
15280.0000 84.6340
15290.0000 84.8210
15300.0000 84.1040
15310.0000 83.7320
15320.0000 84.2690
15330.0000 83.6860
15340.0000 83.5400
15350.0000 84.1530
15360.0000 83.6940
15370.0000 83.9480
15380.0000 84.6310
15390.0000 84.2460
15400.0000 84.9040
15410.0000 85.5500
15420.0000 85.3740
15430.0000 86.2790
15440.0000 86.6960
15450.0000 86.6640
15460.0000 87.7650
15470.0000 87.9860
15480.0000 88.1150
15490.0000 89.2690
15500.0000 89.2630
15510.0000 89.5030
15520.0000 90.5270
15530.0000 90.2940
15540.0000 90.7640
15550.0000 91.5340
15560.0000 91.1530
15570.0000 91.7060
15580.0000 92.2320
15590.0000 91.6030
15600.0000 92.4020
15610.0000 92.6380
15620.0000 92.0380
15630.0000 92.7230
15640.0000 92.4140
15650.0000 92.2240
15660.0000 92.8440
15670.0000 92.2420
15680.0000 92.3080
15690.0000 92.6870
15700.0000 92.0060
15710.0000 92.4410
15720.0000 92.3560
15730.0000 91.9120
15740.0000 92.4830
15750.0000 92.0180
15760.0000 91.9420
15770.0000 92.3290
15780.0000 91.7960
15790.0000 92.1670
15800.0000 92.0390
15810.0000 91.8450
15820.0000 92.3670
15830.0000 91.8000
15840.0000 92.0970
15850.0000 92.1310
15860.0000 91.7440
15870.0000 92.2490
15880.0000 91.7260
15890.0000 91.8540
15900.0000 91.9910
15910.0000 91.4250
15920.0000 92.1730
15930.0000 91.8140
15940.0000 91.5230
15950.0000 91.9180
15960.0000 91.2760
15970.0000 91.6310
15980.0000 91.5040
15990.0000 91.1760
16000.0000 91.6540
16010.0000 91.0280
16020.0000 91.1760
16030.0000 91.2320
16040.0000 90.8130
16050.0000 91.2350
16060.0000 90.5920
16070.0000 90.7910
16080.0000 90.9350
16090.0000 90.3840
16100.0000 90.7270
16110.0000 90.2700
16120.0000 90.4790
16130.0000 90.4520
16140.0000 90.1240
16150.0000 90.4840
16160.0000 89.9520
16170.0000 90.3650
16180.0000 90.2550
16190.0000 89.9960
16200.0000 90.3670
16210.0000 89.9190
16220.0000 90.3020
16230.0000 90.0290
16240.0000 90.2460
16250.0000 90.2480
16260.0000 90.0580
16270.0000 90.6070
16280.0000 90.0950
16290.0000 90.5690
16300.0000 90.3860
16310.0000 90.3270
16320.0000 90.6270
16330.0000 90.3150
16340.0000 90.8610
16350.0000 90.4130
16360.0000 90.7090
16370.0000 90.7650
16380.0000 90.4970
16390.0000 91.0650
16400.0000 90.5070
16410.0000 91.2990
16420.0000 91.0860
16430.0000 90.8070
16440.0000 91.2490
16450.0000 90.8390
16460.0000 91.4650
16470.0000 90.9830
16480.0000 91.4450
16490.0000 91.4080
16500.0000 91.2980
16510.0000 91.7780
16520.0000 91.2860
16530.0000 91.9520
16540.0000 91.3600
16550.0000 91.8950
16560.0000 91.6910
16570.0000 91.8640
16580.0000 92.1080
16590.0000 91.8350
16600.0000 92.5350
16610.0000 91.9860
16620.0000 92.7330
16630.0000 92.1490
16640.0000 92.7250
16650.0000 92.5240
16660.0000 92.7770
16670.0000 93.0490
16680.0000 92.6750
16690.0000 93.5720
16700.0000 92.7330
16710.0000 93.5620
16720.0000 93.1300
16730.0000 93.8510
16740.0000 93.5940
16750.0000 93.6680
16760.0000 94.2140
16770.0000 93.7300
16780.0000 94.4480
16790.0000 93.7550
16800.0000 94.6010
16810.0000 94.0200
16820.0000 94.5700
16830.0000 94.4350
16840.0000 94.3720
16850.0000 94.7850
16860.0000 94.3060
16870.0000 94.9990
16880.0000 94.3820
16890.0000 95.4650
16900.0000 94.3690
16910.0000 95.0480
16920.0000 94.5020
16930.0000 95.0450
16940.0000 94.7800
16950.0000 94.7020
16960.0000 95.0030
16970.0000 94.6610
16980.0000 95.1560
16990.0000 94.6110
17000.0000 95.2100
17010.0000 94.5230
17020.0000 95.1400
17030.0000 94.3910
17040.0000 95.2320
17050.0000 94.4740
17060.0000 95.1040
17070.0000 94.5720
17080.0000 94.9820
17090.0000 94.7780
17100.0000 94.7840
17110.0000 94.9560
17120.0000 94.7320
17130.0000 95.0000
17140.0000 94.5270
17150.0000 95.1280
17160.0000 94.5580
17170.0000 95.1540
17180.0000 94.4090
17190.0000 95.1290
17200.0000 94.4300
17210.0000 94.9160
17220.0000 94.4310
17230.0000 94.7540
17240.0000 94.5330
17250.0000 94.5840
17260.0000 94.5390
17270.0000 94.3670
17280.0000 94.4680
17290.0000 94.1370
17300.0000 94.4230
17310.0000 94.0240
17320.0000 94.5360
17330.0000 93.7110
17340.0000 94.0960
17350.0000 93.4220
17360.0000 94.1810
17370.0000 93.2640
17380.0000 93.7620
17390.0000 93.0540
17400.0000 93.3240
17410.0000 92.8110
17420.0000 92.9820
17430.0000 92.3830
17440.0000 92.6590
17450.0000 92.0910
17460.0000 92.3500
17470.0000 91.7350
17480.0000 91.9450
17490.0000 91.3450
17500.0000 91.6640
17510.0000 90.9180
17520.0000 91.1250
17530.0000 90.5420
17540.0000 90.6860
17550.0000 90.2030
17560.0000 90.3580
17570.0000 89.7500
17580.0000 89.8460
17590.0000 89.3550
17600.0000 89.3600
17610.0000 88.7930
17620.0000 88.7400
17630.0000 88.1800
17640.0000 87.9640
17650.0000 87.4560
17660.0000 87.2310
17670.0000 86.6010
17680.0000 86.2330
17690.0000 85.4130
17700.0000 85.1060
17710.0000 84.1770
17720.0000 83.5200
17730.0000 82.6760
17740.0000 81.7730
17750.0000 80.6480
17760.0000 79.5120
17770.0000 78.1280
17780.0000 76.8780
17790.0000 75.2210
17800.0000 73.7530
17810.0000 71.9050
17820.0000 69.8050
17830.0000 67.7080
17840.0000 65.4690
17850.0000 63.1330
17860.0000 60.8040
17870.0000 58.4490
17880.0000 55.6940
17890.0000 53.1350
17900.0000 50.5140
17910.0000 47.6670
17920.0000 45.0440
17930.0000 42.2280
17940.0000 39.4930
17950.0000 36.9950
17960.0000 34.4150
17970.0000 32.2130
17980.0000 29.6850
17990.0000 27.6480
18000.0000 25.4900
18010.0000 23.5180
18020.0000 21.6270
18030.0000 19.9440
18040.0000 18.2080
18050.0000 16.8460
18060.0000 15.3480
18070.0000 14.1570
18080.0000 13.0670
18090.0000 11.9660
18100.0000 11.0480
18110.0000 10.0540
18120.0000 9.2229
18130.0000 8.4464
18140.0000 7.9523
18150.0000 7.2897
18160.0000 6.6755
18170.0000 6.1063
18180.0000 5.5639
18190.0000 5.0554
18200.0000 4.7180
18210.0000 4.2827
18220.0000 3.8582
18230.0000 3.7087
18240.0000 3.3558
18250.0000 3.0698
18260.0000 2.8302
18270.0000 2.6804
18280.0000 2.5557
18290.0000 2.3581
18300.0000 2.1339
18310.0000 1.8867
18320.0000 1.8091
18330.0000 1.8694
18340.0000 1.5903
18350.0000 1.4968
18360.0000 1.4490
18370.0000 1.2759
18380.0000 1.1616
18390.0000 1.0433
18400.0000 0.9995
18410.0000 1.0292
18420.0000 0.9889
18430.0000 0.8268
18440.0000 0.7483
18450.0000 0.7963
18460.0000 0.8404
18470.0000 0.7333
18480.0000 0.6310
18490.0000 0.6155
18500.0000 0.5962
18510.0000 0.5038
18520.0000 0.4815
18530.0000 0.4381
18540.0000 0.4089
18550.0000 0.4315
18560.0000 0.4607
18570.0000 0.4119
18580.0000 0.2454
18590.0000 0.2147
18600.0000 0.3187
18610.0000 0.2705
18620.0000 0.2308
18630.0000 0.2605
18640.0000 0.2144
18650.0000 0.2537
18660.0000 0.2327
18670.0000 0.0000
18680.0000 0.0609
18690.0000 0.3088
18700.0000 0.2907
18710.0000 0.1935
18720.0000 0.1577
18730.0000 0.1578
18740.0000 0.1518
18750.0000 0.1135
18760.0000 0.0778
18770.0000 0.1753
18780.0000 0.2779
18790.0000 0.2146
18800.0000 0.1036
18810.0000 0.1162
18820.0000 0.1009
18830.0000 0.0113
18840.0000 0.0860
18850.0000 0.1011
18860.0000 0.0646
18870.0000 0.0677
18880.0000 0.1023
18890.0000 0.0525
18900.0000 0.0283
18910.0000 0.0333
18920.0000 0.0554
18930.0000 0.0654
18940.0000 0.0984
18950.0000 0.1124
18960.0000 0.0607
18970.0000 0.0686
18980.0000 0.1112
18990.0000 0.0826
19000.0000 0.1016
19010.0000 0.0584
19020.0000 0.0575
19030.0000 0.0548
19040.0000 0.0522
19050.0000 0.0487
19060.0000 0.0480
19070.0000 0.0464
19080.0000 0.0462
19090.0000 0.0442
19100.0000 0.0418
19110.0000 0.0384
19120.0000 0.0385
19130.0000 0.0372
19140.0000 0.0376
19150.0000 0.0358
19160.0000 0.0335
19170.0000 0.0305
19180.0000 0.0308
19190.0000 0.0287
19200.0000 0.0293
19210.0000 0.0279
19220.0000 0.0273
19230.0000 0.0244
19240.0000 0.0247
19250.0000 0.0233
19260.0000 0.0244
19270.0000 0.0226
19280.0000 0.0216
19290.0000 0.0189
19300.0000 0.0200
19310.0000 0.0193
19320.0000 0.0202
19330.0000 0.0182
19340.0000 0.0179
19350.0000 0.0164
19360.0000 0.0160
19370.0000 0.0147
19380.0000 0.0167
19390.0000 0.0148
19400.0000 0.0150
19410.0000 0.0137
19420.0000 0.0132
19430.0000 0.0120
19440.0000 0.0140
19450.0000 0.0128
19460.0000 0.0119
19470.0000 0.0101
19480.0000 0.0101
19490.0000 0.0101
19500.0000 0.0108
19510.0000 0.0093
19520.0000 0.0095
19530.0000 0.0090
19540.0000 0.0085
19550.0000 0.0090
19560.0000 0.0101
19570.0000 0.0076
19580.0000 0.0077
19590.0000 0.0081
19600.0000 0.0073
19610.0000 0.0069
19620.0000 0.0085
19630.0000 0.0067
19640.0000 0.0080
19650.0000 0.0072
19660.0000 0.0057
19670.0000 0.0066
19680.0000 0.0067
19690.0000 0.0053
19700.0000 0.0063
19710.0000 0.0042
19720.0000 0.0051
19730.0000 0.0062
19740.0000 0.0053
19750.0000 0.0057
19760.0000 0.0049
19770.0000 0.0046
19780.0000 0.0035
19790.0000 0.0061
19800.0000 0.0037
19810.0000 0.0043
19820.0000 0.0041
19830.0000 0.0037
19840.0000 0.0031
19850.0000 0.0050
19860.0000 0.0044
19870.0000 0.0030
19880.0000 0.0035
19890.0000 0.0035
19900.0000 0.0034
19910.0000 0.0050
19920.0000 0.0037
19930.0000 0.0029
19940.0000 0.0036
19950.0000 0.0024
19960.0000 0.0020
19970.0000 0.0039
19980.0000 0.0036
19990.0000 0.0030
20000.0000 0.0033
20010.0000 0.0018
20020.0000 0.0029
20030.0000 0.0037
20040.0000 0.0026
20050.0000 0.0025
20060.0000 0.0029
20070.0000 0.0017
20080.0000 0.0022
20090.0000 0.0030
20100.0000 0.0018
20110.0000 0.0015
20120.0000 0.0028
20130.0000 0.0016
20140.0000 0.0016
20150.0000 0.0032
20160.0000 0.0029
20170.0000 0.0016
20180.0000 0.0036
20190.0000 0.0011
20200.0000 0.0017
20210.0000 0.0025
20220.0000 0.0016
20230.0000 0.0009
20240.0000 0.0024
20250.0000 0.0014
20260.0000 0.0019
20270.0000 0.0026
20280.0000 0.0023
20290.0000 0.0008
20300.0000 0.0017
20310.0000 0.0005
20320.0000 0.0019
20330.0000 0.0022
20340.0000 0.0018
20350.0000 0.0009
20360.0000 0.0018
20370.0000 0.0008
20380.0000 0.0015
20390.0000 0.0024
20400.0000 0.0017
20410.0000 0.0012
20420.0000 0.0015
20430.0000 0.0006
20440.0000 0.0017
20450.0000 0.0019
20460.0000 0.0012
20470.0000 0.0008
20480.0000 0.0017
20490.0000 0.0007
20500.0000 0.0014
20510.0000 0.0020
20520.0000 0.0014
20530.0000 0.0006
20540.0000 0.0012
20550.0000 0.0009
20560.0000 0.0011
20570.0000 0.0016
20580.0000 0.0009
20590.0000 0.0004
20600.0000 0.0007
20610.0000 0.0001
20620.0000 0.0004
20630.0000 0.0013
20640.0000 0.0010
20650.0000 0.0009
20660.0000 0.0005
20670.0000 0.0003
20680.0000 0.0000
20690.0000 0.0005
20700.0000 0.0010
20710.0000 0.0009
20720.0000 0.0008
20730.0000 0.0008
20740.0000 0.0003
20750.0000 0.0007
20760.0000 0.0008
20770.0000 0.0005
20780.0000 0.0001
20790.0000 0.0000
20800.0000 0.0000
20810.0000 0.0002
20820.0000 0.0001
20830.0000 0.0001
20840.0000 0.0000
20850.0000 0.0002
20860.0000 0.0001
20870.0000 0.0002
20880.0000 0.0000
20890.0000 0.0000
20900.0000 0.0000
20910.0000 0.0002
20920.0000 0.0001
20930.0000 0.0006
20940.0000 0.0010
20950.0000 0.0001
20960.0000 0.0000
20970.0000 0.0000
20980.0000 0.0000
20990.0000 0.0000
21000.0000 0.0000
21010.0000 0.0000
21020.0000 0.0004
21030.0000 0.0000
21040.0000 0.0000
21050.0000 0.0000
21060.0000 0.0000
21070.0000 0.0002
21080.0000 0.0003
21090.0000 0.0003
21100.0000 0.0004
21110.0000 0.0001
21120.0000 0.0000
21130.0000 0.0002
21140.0000 0.0000
21150.0000 0.0000
21160.0000 0.0004
21170.0000 0.0000
21180.0000 0.0000
21190.0000 0.0005
21200.0000 0.0000
21210.0000 0.0000
21220.0000 0.0000
21230.0000 0.0000
21240.0000 0.0000
21250.0000 0.0000
21260.0000 0.0000
21270.0000 0.0004
21280.0000 0.0008
21290.0000 0.0005
21300.0000 0.0000
21310.0000 0.0001
21320.0000 0.0000
21330.0000 0.0000
21340.0000 0.0009
21350.0000 0.0005
21360.0000 0.0000
21370.0000 0.0001
21380.0000 0.0000
21390.0000 0.0003
21400.0000 0.0006
21410.0000 0.0000
21420.0000 0.0000
21430.0000 0.0009
21440.0000 0.0008
21450.0000 0.0009
21460.0000 0.0014
21470.0000 0.0001
21480.0000 0.0000
21490.0000 0.0004
21500.0000 0.0001
21510.0000 0.0001
21520.0000 0.0012
21530.0000 0.0000
21540.0000 0.0000
21550.0000 0.0001
21560.0000 0.0006
21570.0000 0.0005
21580.0000 0.0015
21590.0000 0.0000
21600.0000 0.0000
21610.0000 0.0008
21620.0000 0.0004
21630.0000 0.0000
21640.0000 0.0008
21650.0000 -0.0010
21660.0000 -0.0010
21670.0000 0.0000
21680.0000 0.0000
21690.0000 0.0000
21700.0000 0.0009
21710.0000 0.0000
21720.0000 0.0000
21730.0000 0.0000
21740.0000 0.0008
21750.0000 0.0003
21760.0000 0.0014
21770.0000 0.0000
21780.0000 -0.0010
21790.0000 0.0007
21800.0000 0.0000
21810.0000 0.0000
21820.0000 0.0018
21830.0000 0.0001
21840.0000 -0.0010
21850.0000 0.0003
21860.0000 0.0006
21870.0000 0.0005
21880.0000 0.0017
21890.0000 0.0015
21900.0000 -0.0010
21910.0000 0.0000
21920.0000 0.0000
21930.0000 0.0008
21940.0000 0.0002
21950.0000 0.0007
21960.0000 -0.0020
21970.0000 -0.0010
21980.0000 0.0000
21990.0000 0.0002
22000.0000 0.0026
22010.0000 0.0023
22020.0000 0.0000
22030.0000 0.0004
22040.0000 0.0007
22050.0000 0.0000
22060.0000 0.0010
22070.0000 0.0018
22080.0000 -0.0010
22090.0000 -0.0010
22100.0000 0.0008
22110.0000 0.0008
22120.0000 0.0018
22130.0000 0.0010
22140.0000 -0.0010
22150.0000 -0.0020
22160.0000 0.0002
22170.0000 0.0000
22180.0000 -0.0010
22190.0000 0.0014
22200.0000 -0.0010
22210.0000 -0.0030
22220.0000 0.0012
22230.0000 0.0002
22240.0000 0.0011
22250.0000 0.0031
22260.0000 0.0002
22270.0000 -0.0010
22280.0000 0.0000
22290.0000 0.0000
22300.0000 0.0003
22310.0000 0.0023
22320.0000 0.0000
22330.0000 -0.0020
22340.0000 0.0013
22350.0000 0.0010
22360.0000 0.0031
22370.0000 0.0002
22380.0000 0.0000
22390.0000 -0.0010
22400.0000 0.0000
22410.0000 0.0015
22420.0000 0.0018
22430.0000 0.0025
22440.0000 -0.0010
22450.0000 0.0015
22460.0000 0.0000
22470.0000 0.0005
22480.0000 0.0004
22490.0000 0.0022
22500.0000 -0.0010
22510.0000 -0.0010
22520.0000 0.0000
22530.0000 0.0019
22540.0000 0.0000
22550.0000 0.0020
22560.0000 -0.0010
22570.0000 0.0000
22580.0000 0.0000
22590.0000 0.0000
22600.0000 0.0006
22610.0000 0.0003
22620.0000 -0.0020
22630.0000 -0.0020
22640.0000 -0.0010
22650.0000 -0.0010
22660.0000 0.0015
22670.0000 0.0003
22680.0000 0.0017
22690.0000 -0.0010
22700.0000 -0.0010
22710.0000 0.0000
22720.0000 0.0031
22730.0000 0.0000
22740.0000 0.0013
22750.0000 0.0004
22760.0000 0.0000
22770.0000 0.0002
22780.0000 0.0032
22790.0000 0.0003
22800.0000 0.0000
22810.0000 0.0000
22820.0000 -0.0010
22830.0000 0.0000
22840.0000 0.0022
22850.0000 0.0001
22860.0000 0.0000
22870.0000 0.0002
22880.0000 -0.0010
22890.0000 0.0005
22900.0000 0.0028
22910.0000 -0.0010
22920.0000 0.0000
22930.0000 -0.0010
22940.0000 -0.0020
22950.0000 0.0001
22960.0000 0.0019
22970.0000 -0.0010
22980.0000 0.0011
22990.0000 0.0003
23000.0000 -0.0030
23010.0000 0.0000
23020.0000 0.0021
23030.0000 0.0004
23040.0000 0.0020
23050.0000 0.0004
23060.0000 -0.0010
23070.0000 0.0009
23080.0000 0.0026
23090.0000 0.0003
23100.0000 0.0006
23110.0000 0.0000
23120.0000 -0.0020
23130.0000 0.0016
23140.0000 0.0015
23150.0000 0.0000
23160.0000 -0.0010
23170.0000 -0.0010
23180.0000 -0.0020
23190.0000 0.0012
23200.0000 0.0017
23210.0000 0.0000
23220.0000 0.0003
23230.0000 -0.0010
23240.0000 -0.0030
23250.0000 0.0016
23260.0000 0.0030
23270.0000 0.0000
23280.0000 0.0001
23290.0000 0.0009
23300.0000 -0.0010
23310.0000 0.0008
23320.0000 0.0025
23330.0000 0.0000
23340.0000 0.0001
23350.0000 0.0000
23360.0000 -0.0030
23370.0000 0.0004
23380.0000 0.0020
23390.0000 0.0011
23400.0000 0.0018
23410.0000 0.0022
23420.0000 -0.0020
23430.0000 0.0000
23440.0000 0.0016
23450.0000 -0.0010
23460.0000 -0.0020
23470.0000 -0.0010
23480.0000 -0.0030
23490.0000 0.0000
23500.0000 0.0038
23510.0000 0.0016
23520.0000 0.0009
23530.0000 0.0008
23540.0000 -0.0010
23550.0000 0.0013
23560.0000 0.0023
23570.0000 0.0006
23580.0000 0.0015
23590.0000 0.0009
23600.0000 -0.0020
23610.0000 0.0000
23620.0000 0.0008
23630.0000 -0.0010
23640.0000 -0.0010
23650.0000 0.0003
23660.0000 -0.0010
23670.0000 0.0002
23680.0000 0.0019
23690.0000 0.0000
23700.0000 0.0000
23710.0000 0.0016
23720.0000 0.0000
23730.0000 0.0000
23740.0000 0.0001
23750.0000 0.0000
23760.0000 0.0008
23770.0000 0.0015
23780.0000 -0.0010
23790.0000 0.0001
23800.0000 0.0023
23810.0000 0.0013
23820.0000 0.0003
23830.0000 0.0000
23840.0000 -0.0020
23850.0000 0.0000
23860.0000 0.0021
23870.0000 0.0005
23880.0000 -0.0010
23890.0000 0.0000
23900.0000 0.0000
23910.0000 -0.0010
23920.0000 -0.0010
23930.0000 0.0001
23940.0000 0.0011
23950.0000 0.0017
23960.0000 0.0009
23970.0000 0.0006
23980.0000 0.0005
23990.0000 0.0007
24000.0000 0.0013
24010.0000 0.0014
24020.0000 0.0008
24030.0000 0.0013
24040.0000 0.0018
24050.0000 0.0022
24060.0000 0.0028
24070.0000 0.0012
24080.0000 -0.0010
24090.0000 0.0000
24100.0000 0.0000
24110.0000 -0.0010
24120.0000 0.0015
24130.0000 0.0000
24140.0000 0.0003
24150.0000 0.0013
24160.0000 0.0002
24170.0000 0.0006
24180.0000 0.0037
24190.0000 0.0003
24200.0000 0.0003
24210.0000 0.0000
24220.0000 0.0000
24230.0000 0.0007
24240.0000 0.0037
24250.0000 0.0000
24260.0000 0.0000
24270.0000 -0.0010
24280.0000 -0.0010
24290.0000 0.0005
24300.0000 0.0028
24310.0000 -0.0010
24320.0000 0.0019
24330.0000 0.0028
24340.0000 0.0000
24350.0000 0.0000
24360.0000 0.0023
24370.0000 -0.0010
24380.0000 0.0006
24390.0000 0.0006
24400.0000 0.0000
24410.0000 0.0001
24420.0000 0.0021
24430.0000 -0.0010
24440.0000 0.0003
24450.0000 0.0025
24460.0000 0.0001
24470.0000 0.0008
24480.0000 0.0049
24490.0000 0.0013
24500.0000 0.0014
24510.0000 0.0018
24520.0000 -0.0020
24530.0000 -0.0030
24540.0000 0.0018
24550.0000 0.0003
24560.0000 0.0000
24570.0000 0.0035
24580.0000 -0.0010
24590.0000 0.0000
24600.0000 0.0020
24610.0000 0.0004
24620.0000 -0.0020
24630.0000 0.0017
24640.0000 -0.0020
24650.0000 -0.0020
24660.0000 0.0015
24670.0000 0.0000
24680.0000 -0.0040
24690.0000 0.0033
24700.0000 -0.0010
24710.0000 -0.0050
24720.0000 0.0000
24730.0000 0.0000
24740.0000 -0.0040
24750.0000 0.0033
24760.0000 -0.0020
24770.0000 -0.0030
24780.0000 -0.0010
24790.0000 0.0029
24800.0000 0.0009
24810.0000 0.0053
24820.0000 0.0025
24830.0000 -0.0030
24840.0000 0.0056
24850.0000 0.0067
24860.0000 0.0065
24870.0000 0.0088
24880.0000 0.0033
24890.0000 0.0006
24900.0000 -0.0040
24910.0000 0.0011
24920.0000 -0.0010
24930.0000 0.0001
24940.0000 0.0014
24950.0000 -0.0030
24960.0000 0.0000
24970.0000 0.0000
24980.0000 0.0000
24990.0000 0.0008
25000.0000 0.0006
25031.3000 0.0236
25062.7000 0.0115
25094.1000 -0.0134
25125.6000 0.0156
25157.2000 0.0033
25188.9000 -0.0050
25220.7000 0.0354
25252.5000 0.0121
25284.5000 -0.0051
25316.5000 0.0093
25348.5000 -0.0033
25380.7000 0.0091
25413.0000 -0.0195
25445.3000 0.0268
25477.7000 0.0023
25510.2000 0.0008
25542.8000 0.0102
25575.4000 -0.0039
25608.2000 0.0293
25641.0000 -0.0107
25673.9000 0.0343
25706.9000 -0.0015
25740.0000 0.0060
25773.2000 0.0000
25806.5000 -0.0010
25839.8000 -0.0176
25873.2000 0.0103
25906.7000 0.0068
25940.3000 -0.0132
25974.0000 0.0009
26007.8000 0.0076
26041.7000 0.0243
26075.6000 -0.0159
26109.7000 0.0011
26143.8000 0.0237
26178.0000 0.0560
26212.3000 -0.0374
26246.7000 0.0054
26281.2000 -0.0009
26315.8000 0.0260
26350.5000 0.0154
26385.2000 0.0071
26420.1000 -0.0048
26455.0000 -0.0323
26490.1000 0.0111
26525.2000 0.0085
26560.4000 0.0121
26595.7000 -0.0007
26631.2000 0.0091
26666.7000 -0.0120
26702.3000 -0.0035
26738.0000 0.0153
26773.8000 -0.0307
26809.7000 0.0100
26845.6000 0.0361
26881.7000 -0.0400
26917.9000 0.0245
26954.2000 0.0022
26990.6000 0.0049
27027.0000 -0.0171
27063.6000 0.0107
27100.3000 0.0172
27137.0000 -0.0071
27173.9000 0.0143
27210.9000 0.0328
27248.0000 -0.0021
27285.1000 0.0236
27322.4000 0.0091
27359.8000 -0.0049
27397.3000 0.0140
27434.8000 0.0059
27472.5000 0.0347
27510.3000 0.0129
27548.2000 -0.0430
27586.2000 0.0142
27624.3000 0.0298
27662.5000 -0.0001
27700.8000 0.0036
27739.3000 0.0139
27777.8000 -0.0019
27816.4000 0.0019
27855.2000 -0.0086
27894.0000 0.0384
27933.0000 -0.0112
27972.0000 0.0134
28011.2000 -0.0220
28050.5000 0.0191
28089.9000 0.0017
28129.4000 0.0453
28169.0000 -0.0058
28208.7000 -0.0087
28248.6000 0.0063
28288.5000 0.0071
28328.6000 0.0286
28368.8000 -0.0153
28409.1000 -0.0153
28449.5000 0.0076
28490.0000 0.0100
28530.7000 0.0006
28571.4000 -0.0020
28612.3000 0.0134
28653.3000 0.0507
28694.4000 -0.0123
28735.6000 0.0249
28777.0000 0.0013
28818.4000 0.0167
28860.0000 0.0261
28901.7000 0.0107
28943.6000 0.0347
28985.5000 0.0019
29027.6000 -0.0046
29069.8000 0.0156
29112.1000 0.0123
29154.5000 -0.0171
29197.1000 0.0276
29239.8000 0.0061
29282.6000 0.0002
29325.5000 0.0190
29368.6000 0.0036
29411.8000 0.0354
29455.1000 -0.0008
29498.5000 0.0115
29542.1000 0.0129
29585.8000 -0.0120
29629.6000 0.0007
29673.6000 -0.0017
29717.7000 0.0081
29761.9000 -0.0191
29806.3000 0.0301
29850.7000 0.0210
29895.4000 0.0365
29940.1000 0.0067
29985.0000 0.0210
30030.0000 -0.0016
30075.2000 0.0030
30120.5000 0.0262
30165.9000 0.0232
30211.5000 0.0229
30257.2000 0.0347
30303.0000 0.0365
30349.0000 0.0205
30395.1000 -0.0165
30441.4000 0.0196
30487.8000 0.0259
30534.4000 0.0126
30581.0000 -0.0020
30627.9000 0.0166
30674.8000 0.0245
30722.0000 0.0221
30769.2000 0.0286
30816.6000 0.0096
30864.2000 0.0394
30911.9000 -0.0043
30959.8000 0.0187
31007.8000 0.0053
31055.9000 0.0126
31104.2000 -0.0147
31152.6000 0.0228
31201.2000 0.0417
31250.0000 0.0093
31298.9000 0.0249
31348.0000 0.0122
31397.2000 0.0545
31446.5000 0.0176
31496.1000 -0.0005
31545.7000 0.0204
31595.6000 0.0222
31645.6000 -0.0107
31695.7000 0.0309
31746.0000 0.0083
31796.5000 0.0090
31847.1000 0.0252
31897.9000 -0.0033
31948.9000 0.0046
32000.0000 0.0056
