# Units : 
#   wavelength in Angstroms 
#   transmission in %
# Bandpass Name : Ks
# Instrument : VISTA/VIRCAM
# Determined by : Unknown
# References : 
#   https://www.eso.org/sci/facilities/paranal/decommissioned/vircam/inst.html
#   https://astro.pas.rochester.edu/IR-camera/papers/CMcMurtry-SPIEv5902-2005-VIRGO.pdf
# Notes :
#   Includes filter transmission ONLY.
#   This file is a copy of 'VISTA_Filters_at80K_forETC_Ks.dat' from ESO's 
#   'Filters_QE_Atm_curves.tar' with wavelength converted to Angstroms.
#   Prior to April 2025, this was 'vista_vircam_Ks.par' in sedpy.
#
# wavelength transmission
5000.0000 0.0000
5010.0000 0.0000
5020.0000 0.0000
5030.0000 0.0003
5040.0000 0.0001
5050.0000 0.0001
5060.0000 0.0002
5070.0000 0.0002
5080.0000 0.0001
5090.0000 0.0002
5100.0000 0.0002
5110.0000 0.0001
5120.0000 0.0000
5130.0000 0.0000
5140.0000 0.0000
5150.0000 0.0000
5160.0000 0.0000
5170.0000 0.0000
5180.0000 0.0000
5190.0000 0.0000
5200.0000 0.0000
5210.0000 0.0000
5220.0000 0.0001
5230.0000 0.0002
5240.0000 0.0002
5250.0000 0.0001
5260.0000 0.0000
5270.0000 0.0001
5280.0000 0.0000
5290.0000 0.0001
5300.0000 0.0001
5310.0000 0.0000
5320.0000 0.0000
5330.0000 0.0000
5340.0000 0.0000
5350.0000 0.0000
5360.0000 0.0000
5370.0000 0.0000
5380.0000 0.0000
5390.0000 0.0000
5400.0000 0.0000
5410.0000 0.0000
5420.0000 0.0000
5430.0000 0.0001
5440.0000 0.0000
5450.0000 0.0000
5460.0000 0.0000
5470.0000 0.0000
5480.0000 0.0000
5490.0000 0.0000
5500.0000 0.0000
5510.0000 0.0000
5520.0000 0.0000
5530.0000 0.0000
5540.0000 0.0000
5550.0000 0.0000
5560.0000 0.0000
5570.0000 0.0000
5580.0000 0.0001
5590.0000 0.0001
5600.0000 0.0000
5610.0000 0.0000
5620.0000 0.0000
5630.0000 0.0000
5640.0000 0.0000
5650.0000 0.0001
5660.0000 0.0000
5670.0000 0.0000
5680.0000 0.0000
5690.0000 0.0000
5700.0000 0.0000
5710.0000 0.0000
5720.0000 0.0000
5730.0000 0.0000
5740.0000 0.0000
5750.0000 0.0000
5760.0000 0.0000
5770.0000 0.0000
5780.0000 0.0000
5790.0000 0.0000
5800.0000 0.0000
5810.0000 0.0001
5820.0000 0.0001
5830.0000 0.0001
5840.0000 0.0000
5850.0000 0.0000
5860.0000 0.0000
5870.0000 0.0000
5880.0000 0.0001
5890.0000 0.0002
5900.0000 0.0002
5910.0000 0.0003
5920.0000 0.0002
5930.0000 0.0001
5940.0000 0.0002
5950.0000 0.0002
5960.0000 0.0003
5970.0000 0.0005
5980.0000 0.0003
5990.0000 0.0000
6000.0000 0.0000
6010.0000 0.0001
6020.0000 0.0001
6030.0000 0.0000
6040.0000 0.0000
6050.0000 0.0000
6060.0000 0.0001
6070.0000 0.0000
6080.0000 0.0001
6090.0000 0.0000
6100.0000 0.0000
6110.0000 0.0000
6120.0000 0.0000
6130.0000 0.0001
6140.0000 0.0000
6150.0000 0.0000
6160.0000 0.0000
6170.0000 0.0000
6180.0000 0.0000
6190.0000 0.0001
6200.0000 0.0002
6210.0000 0.0002
6220.0000 0.0001
6230.0000 0.0004
6240.0000 0.0001
6250.0000 0.0001
6260.0000 0.0001
6270.0000 0.0000
6280.0000 0.0000
6290.0000 0.0000
6300.0000 0.0001
6310.0000 0.0001
6320.0000 0.0000
6330.0000 0.0000
6340.0000 0.0000
6350.0000 0.0000
6360.0000 0.0002
6370.0000 0.0000
6380.0000 0.0001
6390.0000 0.0002
6400.0000 0.0000
6410.0000 0.0004
6420.0000 0.0006
6430.0000 0.0003
6440.0000 0.0001
6450.0000 0.0000
6460.0000 0.0000
6470.0000 0.0000
6480.0000 0.0000
6490.0000 0.0001
6500.0000 0.0000
6510.0000 0.0000
6520.0000 0.0000
6530.0000 0.0000
6540.0000 0.0000
6550.0000 0.0000
6560.0000 0.0000
6570.0000 0.0000
6580.0000 0.0000
6590.0000 0.0000
6600.0000 0.0000
6610.0000 0.0000
6620.0000 0.0001
6630.0000 0.0004
6640.0000 0.0000
6650.0000 0.0001
6660.0000 0.0003
6670.0000 0.0001
6680.0000 0.0002
6690.0000 0.0002
6700.0000 0.0004
6710.0000 0.0000
6720.0000 0.0001
6730.0000 0.0000
6740.0000 0.0000
6750.0000 0.0000
6760.0000 0.0001
6770.0000 0.0001
6780.0000 0.0000
6790.0000 0.0000
6800.0000 0.0000
6810.0000 0.0000
6820.0000 0.0000
6830.0000 0.0000
6840.0000 0.0000
6850.0000 0.0001
6860.0000 0.0000
6870.0000 0.0001
6880.0000 0.0004
6890.0000 0.0003
6900.0000 0.0000
6910.0000 0.0002
6920.0000 0.0001
6930.0000 0.0000
6940.0000 0.0000
6950.0000 0.0000
6960.0000 0.0000
6970.0000 0.0000
6980.0000 0.0000
6990.0000 0.0000
7000.0000 0.0001
7010.0000 0.0001
7020.0000 0.0000
7030.0000 0.0000
7040.0000 0.0001
7050.0000 0.0000
7060.0000 0.0000
7070.0000 0.0000
7080.0000 0.0004
7090.0000 0.0005
7100.0000 0.0002
7110.0000 0.0001
7120.0000 0.0000
7130.0000 0.0000
7140.0000 0.0001
7150.0000 0.0000
7160.0000 0.0002
7170.0000 0.0003
7180.0000 0.0001
7190.0000 0.0000
7200.0000 0.0000
7210.0000 0.0000
7220.0000 0.0001
7230.0000 0.0000
7240.0000 0.0000
7250.0000 0.0000
7260.0000 0.0002
7270.0000 0.0001
7280.0000 0.0000
7290.0000 0.0002
7300.0000 0.0002
7310.0000 0.0003
7320.0000 0.0004
7330.0000 0.0000
7340.0000 0.0000
7350.0000 0.0000
7360.0000 0.0000
7370.0000 0.0002
7380.0000 0.0003
7390.0000 0.0000
7400.0000 0.0000
7410.0000 0.0000
7420.0000 0.0000
7430.0000 0.0000
7440.0000 0.0000
7450.0000 0.0000
7460.0000 0.0000
7470.0000 0.0000
7480.0000 0.0000
7490.0000 0.0000
7500.0000 0.0000
7510.0000 0.0000
7520.0000 0.0000
7530.0000 0.0000
7540.0000 0.0001
7550.0000 0.0000
7560.0000 0.0000
7570.0000 0.0001
7580.0000 0.0001
7590.0000 0.0000
7600.0000 0.0000
7610.0000 0.0000
7620.0000 0.0000
7630.0000 0.0000
7640.0000 0.0000
7650.0000 0.0001
7660.0000 0.0001
7670.0000 0.0000
7680.0000 0.0000
7690.0000 0.0001
7700.0000 0.0001
7710.0000 0.0000
7720.0000 0.0000
7730.0000 0.0000
7740.0000 0.0000
7750.0000 0.0000
7760.0000 0.0000
7770.0000 0.0001
7780.0000 0.0001
7790.0000 0.0000
7800.0000 0.0000
7810.0000 0.0000
7820.0000 0.0001
7830.0000 0.0001
7840.0000 0.0000
7850.0000 0.0000
7860.0000 0.0000
7870.0000 0.0000
7880.0000 0.0000
7890.0000 0.0000
7900.0000 0.0000
7910.0000 0.0004
7920.0000 0.0003
7930.0000 0.0002
7940.0000 0.0002
7950.0000 0.0004
7960.0000 0.0002
7970.0000 0.0001
7980.0000 0.0004
7990.0000 0.0005
8000.0000 0.0004
8010.0000 0.0004
8020.0000 0.0000
8030.0000 0.0000
8040.0000 0.0003
8050.0000 0.0003
8060.0000 0.0002
8070.0000 0.0008
8080.0000 0.0018
8090.0000 0.0020
8100.0000 0.0007
8110.0000 0.0003
8120.0000 0.0001
8130.0000 0.0003
8140.0000 0.0002
8150.0000 0.0000
8160.0000 0.0001
8170.0000 0.0001
8180.0000 0.0002
8190.0000 0.0000
8200.0000 0.0002
8210.0000 0.0001
8220.0000 0.0000
8230.0000 0.0000
8240.0000 0.0000
8250.0000 0.0000
8260.0000 0.0000
8270.0000 0.0000
8280.0000 0.0001
8290.0000 0.0000
8300.0000 -0.0010
8310.0000 -0.0010
8320.0000 -0.0010
8330.0000 -0.0010
8340.0000 -0.0010
8350.0000 0.0000
8360.0000 -0.0010
8370.0000 -0.0010
8380.0000 -0.0020
8390.0000 -0.0010
8400.0000 -0.0020
8410.0000 -0.0030
8420.0000 -0.0030
8430.0000 -0.0020
8440.0000 -0.0030
8450.0000 -0.0020
8460.0000 -0.0030
8470.0000 -0.0010
8480.0000 -0.0020
8490.0000 -0.0030
8500.0000 -0.0040
8510.0000 -0.0050
8520.0000 0.0000
8530.0000 0.0000
8540.0000 0.0053
8550.0000 0.0109
8560.0000 0.0213
8570.0000 0.0273
8580.0000 0.0379
8590.0000 0.0369
8600.0000 0.0023
8610.0000 0.0000
8620.0000 0.0016
8630.0000 -0.0010
8640.0000 -0.0010
8650.0000 -0.0020
8660.0000 -0.0030
8670.0000 -0.0020
8680.0000 -0.0020
8690.0000 -0.0050
8700.0000 -0.0050
8710.0000 0.0000
8720.0000 -0.0030
8730.0000 -0.0030
8740.0000 0.0006
8750.0000 0.0015
8760.0000 0.0021
8770.0000 0.0000
8780.0000 0.0000
8790.0000 -0.0010
8800.0000 -0.0010
8810.0000 0.0023
8820.0000 0.0009
8830.0000 0.0004
8840.0000 0.0013
8850.0000 0.0002
8860.0000 0.0004
8870.0000 -0.0010
8880.0000 0.0000
8890.0000 0.0010
8900.0000 0.0008
8910.0000 0.0008
8920.0000 0.0000
8930.0000 0.0000
8940.0000 -0.0010
8950.0000 0.0000
8960.0000 0.0001
8970.0000 0.0019
8980.0000 0.0000
8990.0000 0.0004
9000.0000 0.0003
9010.0000 0.0002
9020.0000 -0.0030
9030.0000 0.0019
9040.0000 0.0021
9050.0000 0.0006
9060.0000 0.0000
9070.0000 0.0000
9080.0000 0.0013
9090.0000 0.0000
9100.0000 0.0001
9110.0000 0.0006
9120.0000 0.0009
9130.0000 0.0008
9140.0000 0.0009
9150.0000 0.0007
9160.0000 0.0009
9170.0000 0.0000
9180.0000 0.0001
9190.0000 0.0013
9200.0000 0.0000
9210.0000 0.0000
9220.0000 0.0004
9230.0000 0.0005
9240.0000 0.0000
9250.0000 0.0000
9260.0000 0.0002
9270.0000 0.0000
9280.0000 0.0004
9290.0000 0.0007
9300.0000 0.0001
9310.0000 0.0008
9320.0000 0.0001
9330.0000 0.0011
9340.0000 0.0009
9350.0000 -0.0010
9360.0000 0.0000
9370.0000 0.0000
9380.0000 0.0000
9390.0000 0.0000
9400.0000 0.0000
9410.0000 0.0003
9420.0000 0.0000
9430.0000 0.0000
9440.0000 0.0010
9450.0000 0.0009
9460.0000 0.0009
9470.0000 0.0000
9480.0000 0.0000
9490.0000 0.0010
9500.0000 0.0006
9510.0000 0.0004
9520.0000 0.0008
9530.0000 0.0008
9540.0000 0.0004
9550.0000 0.0001
9560.0000 0.0007
9570.0000 0.0000
9580.0000 0.0002
9590.0000 0.0000
9600.0000 0.0000
9610.0000 0.0000
9620.0000 0.0004
9630.0000 0.0013
9640.0000 0.0007
9650.0000 0.0006
9660.0000 0.0016
9670.0000 0.0003
9680.0000 -0.0010
9690.0000 0.0007
9700.0000 0.0000
9710.0000 0.0008
9720.0000 0.0006
9730.0000 0.0000
9740.0000 0.0000
9750.0000 0.0007
9760.0000 0.0002
9770.0000 0.0000
9780.0000 -0.0010
9790.0000 0.0000
9800.0000 0.0000
9810.0000 0.0000
9820.0000 0.0008
9830.0000 0.0009
9840.0000 0.0001
9850.0000 0.0000
9860.0000 0.0000
9870.0000 0.0000
9880.0000 0.0000
9890.0000 0.0001
9900.0000 0.0000
9910.0000 0.0000
9920.0000 0.0001
9930.0000 0.0003
9940.0000 0.0000
9950.0000 0.0004
9960.0000 0.0001
9970.0000 0.0005
9980.0000 0.0007
9990.0000 -0.0010
10000.0000 0.0000
10010.0000 0.0000
10020.0000 0.0000
10030.0000 0.0003
10040.0000 0.0006
10050.0000 0.0000
10060.0000 0.0002
10070.0000 0.0015
10080.0000 0.0016
10090.0000 0.0016
10100.0000 0.0000
10110.0000 0.0000
10120.0000 0.0000
10130.0000 0.0000
10140.0000 0.0000
10150.0000 0.0000
10160.0000 0.0001
10170.0000 0.0000
10180.0000 0.0000
10190.0000 0.0011
10200.0000 0.0016
10210.0000 0.0004
10220.0000 0.0000
10230.0000 0.0001
10240.0000 0.0000
10250.0000 0.0000
10260.0000 0.0000
10270.0000 0.0003
10280.0000 0.0008
10290.0000 0.0003
10300.0000 0.0000
10310.0000 0.0000
10320.0000 0.0007
10330.0000 0.0006
10340.0000 0.0000
10350.0000 0.0000
10360.0000 0.0000
10370.0000 0.0000
10380.0000 0.0000
10390.0000 0.0000
10400.0000 0.0002
10410.0000 0.0012
10420.0000 0.0015
10430.0000 0.0010
10440.0000 0.0008
10450.0000 0.0008
10460.0000 0.0007
10470.0000 0.0010
10480.0000 0.0005
10490.0000 0.0000
10500.0000 0.0004
10510.0000 0.0008
10520.0000 0.0002
10530.0000 0.0000
10540.0000 0.0000
10550.0000 0.0000
10560.0000 0.0006
10570.0000 0.0010
10580.0000 0.0007
10590.0000 0.0002
10600.0000 0.0000
10610.0000 0.0000
10620.0000 0.0000
10630.0000 0.0000
10640.0000 0.0000
10650.0000 0.0000
10660.0000 0.0000
10670.0000 0.0000
10680.0000 0.0002
10690.0000 0.0009
10700.0000 0.0022
10710.0000 0.0012
10720.0000 0.0003
10730.0000 0.0006
10740.0000 0.0010
10750.0000 0.0007
10760.0000 0.0000
10770.0000 0.0000
10780.0000 0.0011
10790.0000 0.0015
10800.0000 0.0009
10810.0000 0.0008
10820.0000 0.0008
10830.0000 0.0017
10840.0000 0.0018
10850.0000 0.0026
10860.0000 0.0028
10870.0000 0.0020
10880.0000 0.0019
10890.0000 0.0021
10900.0000 0.0010
10910.0000 0.0020
10920.0000 0.0023
10930.0000 0.0027
10940.0000 0.0030
10950.0000 0.0028
10960.0000 0.0031
10970.0000 0.0028
10980.0000 0.0036
10990.0000 0.0041
11000.0000 0.0041
11010.0000 0.0034
11020.0000 0.0046
11030.0000 0.0047
11040.0000 0.0040
11050.0000 0.0046
11060.0000 0.0045
11070.0000 0.0050
11080.0000 0.0058
11090.0000 0.0066
11100.0000 0.0063
11110.0000 0.0069
11120.0000 0.0078
11130.0000 0.0083
11140.0000 0.0082
11150.0000 0.0087
11160.0000 0.0097
11170.0000 0.0098
11180.0000 0.0108
11190.0000 0.0130
11200.0000 0.0142
11210.0000 0.0154
11220.0000 0.0178
11230.0000 0.0196
11240.0000 0.0225
11250.0000 0.0253
11260.0000 0.0297
11270.0000 0.0339
11280.0000 0.0388
11290.0000 0.0449
11300.0000 0.0517
11310.0000 0.0592
11320.0000 0.0677
11330.0000 0.0736
11340.0000 0.0836
11350.0000 0.0932
11360.0000 0.1032
11370.0000 0.1147
11380.0000 0.1255
11390.0000 0.1383
11400.0000 0.1510
11410.0000 0.1668
11420.0000 0.1829
11430.0000 0.2015
11440.0000 0.2206
11450.0000 0.2465
11460.0000 0.2730
11470.0000 0.3039
11480.0000 0.3387
11490.0000 0.3771
11500.0000 0.4206
11510.0000 0.4674
11520.0000 0.5163
11530.0000 0.5676
11540.0000 0.6170
11550.0000 0.6674
11560.0000 0.7137
11570.0000 0.7550
11580.0000 0.7868
11590.0000 0.8204
11600.0000 0.8362
11610.0000 0.8419
11620.0000 0.8411
11630.0000 0.8285
11640.0000 0.8086
11650.0000 0.7862
11660.0000 0.7566
11670.0000 0.7302
11680.0000 0.6928
11690.0000 0.6631
11700.0000 0.6332
11710.0000 0.6044
11720.0000 0.5793
11730.0000 0.5579
11740.0000 0.5418
11750.0000 0.5273
11760.0000 0.5167
11770.0000 0.5107
11780.0000 0.5076
11790.0000 0.5094
11800.0000 0.5167
11810.0000 0.5281
11820.0000 0.5456
11830.0000 0.5671
11840.0000 0.5956
11850.0000 0.6302
11860.0000 0.6708
11870.0000 0.7163
11880.0000 0.7609
11890.0000 0.7981
11900.0000 0.8389
11910.0000 0.8662
11920.0000 0.8776
11930.0000 0.8728
11940.0000 0.8512
11950.0000 0.8086
11960.0000 0.7479
11970.0000 0.6756
11980.0000 0.5953
11990.0000 0.5115
12000.0000 0.4294
12010.0000 0.3544
12020.0000 0.2884
12030.0000 0.2361
12040.0000 0.1824
12050.0000 0.1437
12060.0000 0.1135
12070.0000 0.0904
12080.0000 0.0728
12090.0000 0.0580
12100.0000 0.0475
12110.0000 0.0381
12120.0000 0.0322
12130.0000 0.0268
12140.0000 0.0224
12150.0000 0.0185
12160.0000 0.0141
12170.0000 0.0116
12180.0000 0.0104
12190.0000 0.0084
12200.0000 0.0072
12210.0000 0.0074
12220.0000 0.0057
12230.0000 0.0050
12240.0000 0.0051
12250.0000 0.0053
12260.0000 0.0046
12270.0000 0.0047
12280.0000 0.0043
12290.0000 0.0040
12300.0000 0.0037
12310.0000 0.0036
12320.0000 0.0025
12330.0000 0.0025
12340.0000 0.0022
12350.0000 0.0016
12360.0000 0.0015
12370.0000 0.0003
12380.0000 0.0010
12390.0000 0.0019
12400.0000 0.0015
12410.0000 0.0006
12420.0000 0.0010
12430.0000 0.0002
12440.0000 0.0002
12450.0000 0.0000
12460.0000 0.0003
12470.0000 0.0009
12480.0000 0.0005
12490.0000 0.0005
12500.0000 0.0005
12510.0000 0.0009
12520.0000 0.0002
12530.0000 0.0000
12540.0000 0.0002
12550.0000 0.0005
12560.0000 0.0004
12570.0000 0.0000
12580.0000 0.0000
12590.0000 -0.0010
12600.0000 -0.0020
12610.0000 -0.0010
12620.0000 0.0000
12630.0000 0.0010
12640.0000 0.0010
12650.0000 0.0002
12660.0000 0.0002
12670.0000 0.0013
12680.0000 0.0018
12690.0000 0.0017
12700.0000 0.0015
12710.0000 0.0012
12720.0000 0.0011
12730.0000 0.0012
12740.0000 0.0002
12750.0000 0.0000
12760.0000 0.0000
12770.0000 -0.0010
12780.0000 -0.0010
12790.0000 -0.0010
12800.0000 -0.0020
12810.0000 -0.0010
12820.0000 0.0000
12830.0000 0.0000
12840.0000 0.0000
12850.0000 0.0002
12860.0000 0.0007
12870.0000 0.0016
12880.0000 0.0023
12890.0000 0.0018
12900.0000 0.0013
12910.0000 0.0010
12920.0000 0.0000
12930.0000 0.0000
12940.0000 0.0000
12950.0000 0.0000
12960.0000 0.0000
12970.0000 0.0000
12980.0000 -0.0010
12990.0000 -0.0010
13000.0000 0.0000
13010.0000 0.0000
13020.0000 0.0001
13030.0000 0.0007
13040.0000 0.0002
13050.0000 0.0002
13060.0000 0.0015
13070.0000 0.0019
13080.0000 0.0008
13090.0000 0.0000
13100.0000 0.0000
13110.0000 -0.0010
13120.0000 0.0000
13130.0000 0.0006
13140.0000 0.0008
13150.0000 0.0000
13160.0000 0.0000
13170.0000 0.0000
13180.0000 0.0000
13190.0000 0.0001
13200.0000 0.0004
13210.0000 0.0002
13220.0000 0.0000
13230.0000 0.0011
13240.0000 0.0018
13250.0000 0.0012
13260.0000 0.0004
13270.0000 0.0000
13280.0000 0.0000
13290.0000 0.0000
13300.0000 0.0003
13310.0000 0.0007
13320.0000 0.0000
13330.0000 0.0000
13340.0000 0.0004
13350.0000 0.0003
13360.0000 0.0002
13370.0000 0.0007
13380.0000 0.0012
13390.0000 0.0007
13400.0000 0.0000
13410.0000 0.0000
13420.0000 0.0000
13430.0000 0.0000
13440.0000 0.0002
13450.0000 0.0001
13460.0000 0.0000
13470.0000 0.0000
13480.0000 0.0000
13490.0000 0.0000
13500.0000 0.0001
13510.0000 0.0000
13520.0000 0.0000
13530.0000 0.0000
13540.0000 -0.0010
13550.0000 0.0000
13560.0000 0.0000
13570.0000 0.0001
13580.0000 0.0008
13590.0000 0.0008
13600.0000 0.0000
13610.0000 0.0000
13620.0000 0.0000
13630.0000 0.0000
13640.0000 0.0004
13650.0000 0.0001
13660.0000 0.0000
13670.0000 0.0000
13680.0000 0.0000
13690.0000 0.0000
13700.0000 0.0000
13710.0000 0.0001
13720.0000 0.0007
13730.0000 0.0003
13740.0000 0.0003
13750.0000 0.0002
13760.0000 0.0000
13770.0000 0.0000
13780.0000 0.0000
13790.0000 0.0000
13800.0000 -0.0010
13810.0000 -0.0010
13820.0000 -0.0010
13830.0000 0.0000
13840.0000 0.0001
13850.0000 0.0010
13860.0000 0.0003
13870.0000 0.0003
13880.0000 0.0007
13890.0000 0.0006
13900.0000 0.0003
13910.0000 0.0009
13920.0000 0.0004
13930.0000 0.0004
13940.0000 0.0003
13950.0000 0.0002
13960.0000 0.0002
13970.0000 0.0006
13980.0000 0.0002
13990.0000 0.0000
14000.0000 0.0000
14010.0000 0.0008
14020.0000 0.0010
14030.0000 0.0000
14040.0000 0.0000
14050.0000 -0.0010
14060.0000 -0.0010
14070.0000 0.0002
14080.0000 0.0009
14090.0000 0.0006
14100.0000 0.0000
14110.0000 0.0000
14120.0000 0.0005
14130.0000 0.0007
14140.0000 0.0014
14150.0000 0.0000
14160.0000 -0.0010
14170.0000 0.0000
14180.0000 0.0000
14190.0000 -0.0010
14200.0000 0.0005
14210.0000 0.0000
14220.0000 0.0000
14230.0000 0.0000
14240.0000 0.0000
14250.0000 -0.0010
14260.0000 0.0000
14270.0000 0.0007
14280.0000 0.0000
14290.0000 0.0001
14300.0000 0.0012
14310.0000 0.0011
14320.0000 0.0011
14330.0000 0.0017
14340.0000 0.0017
14350.0000 0.0017
14360.0000 0.0013
14370.0000 0.0012
14380.0000 0.0006
14390.0000 0.0008
14400.0000 0.0006
14410.0000 0.0000
14420.0000 0.0001
14430.0000 0.0007
14440.0000 0.0000
14450.0000 0.0000
14460.0000 -0.0010
14470.0000 0.0000
14480.0000 0.0010
14490.0000 0.0009
14500.0000 0.0000
14510.0000 -0.0010
14520.0000 0.0000
14530.0000 0.0000
14540.0000 0.0000
14550.0000 -0.0010
14560.0000 0.0000
14570.0000 0.0007
14580.0000 0.0000
14590.0000 0.0007
14600.0000 0.0001
14610.0000 0.0000
14620.0000 0.0000
14630.0000 0.0000
14640.0000 0.0005
14650.0000 0.0000
14660.0000 0.0000
14670.0000 0.0008
14680.0000 0.0007
14690.0000 0.0010
14700.0000 0.0012
14710.0000 0.0014
14720.0000 0.0010
14730.0000 0.0008
14740.0000 0.0014
14750.0000 0.0005
14760.0000 0.0001
14770.0000 0.0000
14780.0000 0.0001
14790.0000 0.0000
14800.0000 0.0000
14810.0000 0.0002
14820.0000 0.0005
14830.0000 0.0000
14840.0000 0.0000
14850.0000 0.0001
14860.0000 0.0000
14870.0000 0.0000
14880.0000 0.0000
14890.0000 0.0009
14900.0000 0.0004
14910.0000 0.0000
14920.0000 0.0000
14930.0000 0.0003
14940.0000 0.0002
14950.0000 0.0000
14960.0000 0.0000
14970.0000 0.0002
14980.0000 0.0000
14990.0000 0.0002
15000.0000 0.0004
15010.0000 0.0001
15020.0000 0.0000
15030.0000 0.0000
15040.0000 0.0000
15050.0000 0.0000
15060.0000 -0.0010
15070.0000 0.0000
15080.0000 0.0000
15090.0000 0.0000
15100.0000 0.0000
15110.0000 0.0007
15120.0000 0.0004
15130.0000 0.0001
15140.0000 0.0000
15150.0000 0.0000
15160.0000 0.0000
15170.0000 -0.0010
15180.0000 -0.0010
15190.0000 -0.0010
15200.0000 -0.0010
15210.0000 -0.0010
15220.0000 -0.0010
15230.0000 0.0000
15240.0000 0.0005
15250.0000 0.0009
15260.0000 0.0004
15270.0000 0.0000
15280.0000 0.0000
15290.0000 0.0001
15300.0000 0.0000
15310.0000 0.0000
15320.0000 0.0003
15330.0000 0.0007
15340.0000 0.0010
15350.0000 0.0011
15360.0000 0.0008
15370.0000 0.0004
15380.0000 0.0006
15390.0000 0.0000
15400.0000 0.0005
15410.0000 0.0000
15420.0000 -0.0010
15430.0000 0.0000
15440.0000 0.0006
15450.0000 0.0000
15460.0000 0.0000
15470.0000 0.0000
15480.0000 0.0000
15490.0000 0.0000
15500.0000 0.0000
15510.0000 0.0002
15520.0000 0.0000
15530.0000 0.0003
15540.0000 0.0007
15550.0000 0.0007
15560.0000 0.0003
15570.0000 0.0000
15580.0000 0.0000
15590.0000 0.0000
15600.0000 0.0000
15610.0000 0.0000
15620.0000 0.0000
15630.0000 0.0000
15640.0000 0.0001
15650.0000 0.0000
15660.0000 0.0000
15670.0000 0.0005
15680.0000 0.0010
15690.0000 0.0009
15700.0000 0.0014
15710.0000 0.0012
15720.0000 0.0003
15730.0000 0.0000
15740.0000 0.0000
15750.0000 0.0000
15760.0000 -0.0010
15770.0000 -0.0010
15780.0000 -0.0010
15790.0000 0.0000
15800.0000 0.0000
15810.0000 0.0000
15820.0000 0.0000
15830.0000 0.0000
15840.0000 0.0001
15850.0000 0.0001
15860.0000 0.0000
15870.0000 -0.0010
15880.0000 0.0000
15890.0000 0.0000
15900.0000 0.0000
15910.0000 0.0000
15920.0000 0.0005
15930.0000 0.0009
15940.0000 0.0005
15950.0000 0.0007
15960.0000 0.0009
15970.0000 0.0006
15980.0000 0.0001
15990.0000 0.0002
16000.0000 0.0005
16010.0000 0.0007
16020.0000 0.0006
16030.0000 0.0005
16040.0000 0.0008
16050.0000 0.0003
16060.0000 0.0000
16070.0000 0.0000
16080.0000 0.0003
16090.0000 0.0002
16100.0000 0.0000
16110.0000 0.0000
16120.0000 0.0001
16130.0000 0.0000
16140.0000 0.0002
16150.0000 0.0005
16160.0000 0.0009
16170.0000 0.0000
16180.0000 0.0000
16190.0000 0.0000
16200.0000 0.0004
16210.0000 0.0005
16220.0000 0.0013
16230.0000 0.0015
16240.0000 0.0000
16250.0000 0.0000
16260.0000 0.0000
16270.0000 0.0002
16280.0000 0.0003
16290.0000 0.0001
16300.0000 0.0002
16310.0000 0.0004
16320.0000 0.0007
16330.0000 0.0000
16340.0000 0.0000
16350.0000 0.0000
16360.0000 0.0000
16370.0000 0.0000
16380.0000 0.0000
16390.0000 0.0005
16400.0000 0.0005
16410.0000 0.0000
16420.0000 0.0000
16430.0000 -0.0010
16440.0000 0.0000
16450.0000 0.0000
16460.0000 0.0000
16470.0000 0.0001
16480.0000 0.0010
16490.0000 0.0008
16500.0000 0.0004
16510.0000 0.0001
16520.0000 0.0000
16530.0000 0.0004
16540.0000 0.0002
16550.0000 0.0000
16560.0000 0.0000
16570.0000 0.0000
16580.0000 0.0001
16590.0000 0.0004
16600.0000 0.0007
16610.0000 0.0000
16620.0000 0.0000
16630.0000 0.0000
16640.0000 -0.0010
16650.0000 -0.0010
16660.0000 0.0000
16670.0000 0.0001
16680.0000 0.0000
16690.0000 0.0000
16700.0000 0.0000
16710.0000 0.0004
16720.0000 0.0009
16730.0000 0.0009
16740.0000 0.0001
16750.0000 0.0006
16760.0000 0.0007
16770.0000 0.0000
16780.0000 0.0000
16790.0000 0.0000
16800.0000 0.0010
16810.0000 0.0011
16820.0000 0.0012
16830.0000 0.0001
16840.0000 0.0000
16850.0000 0.0001
16860.0000 -0.0010
16870.0000 -0.0010
16880.0000 0.0000
16890.0000 0.0004
16900.0000 0.0000
16910.0000 0.0000
16920.0000 0.0000
16930.0000 0.0000
16940.0000 0.0000
16950.0000 0.0000
16960.0000 0.0010
16970.0000 0.0001
16980.0000 0.0007
16990.0000 0.0002
17000.0000 0.0000
17010.0000 0.0008
17020.0000 0.0001
17030.0000 0.0000
17040.0000 0.0000
17050.0000 0.0007
17060.0000 0.0000
17070.0000 0.0000
17080.0000 0.0005
17090.0000 0.0000
17100.0000 0.0004
17110.0000 0.0008
17120.0000 0.0011
17130.0000 0.0004
17140.0000 0.0000
17150.0000 0.0003
17160.0000 0.0000
17170.0000 0.0005
17180.0000 0.0003
17190.0000 0.0004
17200.0000 0.0000
17210.0000 0.0000
17220.0000 -0.0010
17230.0000 0.0000
17240.0000 0.0000
17250.0000 0.0000
17260.0000 -0.0010
17270.0000 0.0000
17280.0000 -0.0010
17290.0000 -0.0010
17300.0000 0.0000
17310.0000 0.0000
17320.0000 0.0000
17330.0000 0.0000
17340.0000 0.0000
17350.0000 0.0008
17360.0000 0.0000
17370.0000 0.0005
17380.0000 0.0000
17390.0000 -0.0010
17400.0000 0.0000
17410.0000 0.0000
17420.0000 0.0000
17430.0000 0.0010
17440.0000 0.0000
17450.0000 0.0000
17460.0000 0.0003
17470.0000 0.0011
17480.0000 0.0009
17490.0000 0.0008
17500.0000 0.0008
17510.0000 0.0010
17520.0000 0.0005
17530.0000 0.0009
17540.0000 0.0011
17550.0000 0.0016
17560.0000 0.0019
17570.0000 0.0012
17580.0000 0.0014
17590.0000 0.0007
17600.0000 0.0001
17610.0000 0.0010
17620.0000 0.0005
17630.0000 0.0006
17640.0000 0.0010
17650.0000 0.0011
17660.0000 0.0014
17670.0000 0.0011
17680.0000 0.0022
17690.0000 0.0021
17700.0000 0.0010
17710.0000 0.0011
17720.0000 0.0021
17730.0000 0.0017
17740.0000 0.0010
17750.0000 0.0008
17760.0000 0.0014
17770.0000 0.0010
17780.0000 0.0013
17790.0000 0.0019
17800.0000 0.0016
17810.0000 0.0010
17820.0000 0.0010
17830.0000 0.0013
17840.0000 0.0009
17850.0000 0.0011
17860.0000 0.0013
17870.0000 0.0007
17880.0000 0.0016
17890.0000 0.0026
17900.0000 0.0029
17910.0000 0.0026
17920.0000 0.0019
17930.0000 0.0023
17940.0000 0.0023
17950.0000 0.0019
17960.0000 0.0021
17970.0000 0.0019
17980.0000 0.0019
17990.0000 0.0029
18000.0000 0.0032
18010.0000 0.0815
18020.0000 0.0289
18030.0000 -0.0870
18040.0000 -0.0570
18050.0000 -0.0150
18060.0000 0.0120
18070.0000 0.0362
18080.0000 0.0310
18090.0000 -0.0170
18100.0000 0.0066
18110.0000 -0.0290
18120.0000 -0.0330
18130.0000 0.0413
18140.0000 0.0561
18150.0000 -0.0200
18160.0000 0.0262
18170.0000 0.0376
18180.0000 0.0114
18190.0000 -0.0190
18200.0000 0.0072
18210.0000 -0.0170
18220.0000 0.0843
18230.0000 0.1093
18240.0000 -0.0240
18250.0000 -0.0290
18260.0000 -0.0630
18270.0000 0.0061
18280.0000 0.0940
18290.0000 -0.0250
18300.0000 -0.0950
18310.0000 -0.0300
18320.0000 0.0229
18330.0000 -0.0260
18340.0000 -0.0470
18350.0000 -0.0190
18360.0000 0.0223
18370.0000 0.0330
18380.0000 -0.0350
18390.0000 0.0398
18400.0000 0.0591
18410.0000 0.0339
18420.0000 0.0869
18430.0000 -0.0120
18440.0000 0.0494
18450.0000 0.1495
18460.0000 0.0494
18470.0000 -0.0290
18480.0000 -0.0150
18490.0000 0.0165
18500.0000 0.0787
18510.0000 0.1133
18520.0000 0.0923
18530.0000 0.0050
18540.0000 -0.0550
18550.0000 0.0519
18560.0000 0.1010
18570.0000 -0.0050
18580.0000 -0.0080
18590.0000 0.0331
18600.0000 0.0218
18610.0000 0.0056
18620.0000 -0.0660
18630.0000 0.0160
18640.0000 0.1108
18650.0000 0.0377
18660.0000 0.0712
18670.0000 0.1264
18680.0000 -0.0010
18690.0000 -0.1360
18700.0000 -0.0800
18710.0000 0.0850
18720.0000 0.0349
18730.0000 -0.0410
18740.0000 0.0121
18750.0000 0.0008
18760.0000 0.0271
18770.0000 0.1188
18780.0000 0.1517
18790.0000 0.0755
18800.0000 -0.0360
18810.0000 0.0267
18820.0000 0.0667
18830.0000 0.0346
18840.0000 0.0707
18850.0000 0.0615
18860.0000 0.0174
18870.0000 0.1096
18880.0000 0.1231
18890.0000 0.0566
18900.0000 0.0537
18910.0000 0.0210
18920.0000 0.0530
18930.0000 0.1015
18940.0000 0.2008
18950.0000 0.1455
18960.0000 0.1063
18970.0000 0.1021
18980.0000 -0.0240
18990.0000 0.1328
19000.0000 0.2281
19010.0000 0.2166
19020.0000 0.2027
19030.0000 0.1844
19040.0000 0.1846
19050.0000 0.1460
19060.0000 0.1200
19070.0000 0.0329
19080.0000 0.0801
19090.0000 0.1555
19100.0000 0.1741
19110.0000 0.2046
19120.0000 0.2456
19130.0000 0.1091
19140.0000 0.1262
19150.0000 0.2274
19160.0000 0.3093
19170.0000 0.3389
19180.0000 0.3369
19190.0000 0.3436
19200.0000 0.3025
19210.0000 0.4340
19220.0000 0.4707
19230.0000 0.3666
19240.0000 0.5718
19250.0000 0.6515
19260.0000 0.5738
19270.0000 0.5953
19280.0000 0.7580
19290.0000 0.8632
19300.0000 0.9318
19310.0000 0.8624
19320.0000 0.8906
19330.0000 0.9129
19340.0000 1.0218
19350.0000 1.0223
19360.0000 1.0903
19370.0000 1.2344
19380.0000 1.3214
19390.0000 1.6507
19400.0000 1.7571
19410.0000 1.7276
19420.0000 1.6384
19430.0000 1.6079
19440.0000 1.9199
19450.0000 2.0101
19460.0000 2.2213
19470.0000 2.3513
19480.0000 2.4623
19490.0000 2.5908
19500.0000 2.8987
19510.0000 3.0738
19520.0000 3.1819
19530.0000 3.4743
19540.0000 3.6861
19550.0000 3.7143
19560.0000 4.0057
19570.0000 4.3516
19580.0000 4.7412
19590.0000 5.0775
19600.0000 5.3992
19610.0000 6.0281
19620.0000 6.5784
19630.0000 7.0465
19640.0000 7.4707
19650.0000 7.6885
19660.0000 8.3109
19670.0000 9.0237
19680.0000 9.5727
19690.0000 10.2370
19700.0000 10.7930
19710.0000 11.9680
19720.0000 12.7260
19730.0000 13.6000
19740.0000 14.7350
19750.0000 15.5490
19760.0000 16.9390
19770.0000 18.2430
19780.0000 19.6610
19790.0000 21.1390
19800.0000 21.9480
19810.0000 23.8890
19820.0000 25.6280
19830.0000 27.2860
19840.0000 29.4300
19850.0000 30.5990
19860.0000 33.0820
19870.0000 35.1280
19880.0000 37.1470
19890.0000 40.0500
19900.0000 41.5700
19910.0000 44.6390
19920.0000 46.5130
19930.0000 48.9180
19940.0000 52.2730
19950.0000 53.6150
19960.0000 56.7040
19970.0000 58.7180
19980.0000 60.4430
19990.0000 63.8080
20000.0000 64.2800
20010.0000 67.6890
20020.0000 69.5520
20030.0000 70.3880
20040.0000 73.5500
20050.0000 73.6830
20060.0000 75.8440
20070.0000 77.7710
20080.0000 77.4620
20090.0000 80.1440
20100.0000 79.7580
20110.0000 80.8930
20120.0000 82.4380
20130.0000 81.6270
20140.0000 83.5400
20150.0000 83.3190
20160.0000 83.1520
20170.0000 85.1300
20180.0000 83.6690
20190.0000 84.8250
20200.0000 85.2860
20210.0000 84.1160
20220.0000 85.7160
20230.0000 84.9900
20240.0000 84.6920
20250.0000 86.3110
20260.0000 84.7770
20270.0000 85.8270
20280.0000 85.9790
20290.0000 84.7530
20300.0000 86.5040
20310.0000 85.3820
20320.0000 85.3470
20330.0000 86.4530
20340.0000 84.9810
20350.0000 86.1540
20360.0000 85.8140
20370.0000 84.8410
20380.0000 86.6090
20390.0000 85.3230
20400.0000 85.8570
20410.0000 86.5040
20420.0000 85.1160
20430.0000 86.7150
20440.0000 86.0650
20450.0000 85.4310
20460.0000 87.1920
20470.0000 85.8720
20480.0000 86.6500
20490.0000 87.2050
20500.0000 86.0140
20510.0000 87.4120
20520.0000 87.0870
20530.0000 86.5580
20540.0000 88.0040
20550.0000 86.9750
20560.0000 87.4740
20570.0000 88.3440
20580.0000 87.1830
20590.0000 88.4640
20600.0000 88.4090
20610.0000 87.5530
20620.0000 88.9510
20630.0000 88.2810
20640.0000 88.2690
20650.0000 89.4840
20660.0000 88.2850
20670.0000 88.9610
20680.0000 89.6410
20690.0000 88.5210
20700.0000 89.7930
20710.0000 89.7040
20720.0000 89.1070
20730.0000 90.3830
20740.0000 89.5880
20750.0000 89.7650
20760.0000 90.7490
20770.0000 89.6890
20780.0000 90.5410
20790.0000 90.7590
20800.0000 89.8840
20810.0000 91.0780
20820.0000 90.6650
20830.0000 90.3370
20840.0000 91.4950
20850.0000 90.5840
20860.0000 90.8860
20870.0000 91.6330
20880.0000 90.4890
20890.0000 91.2950
20900.0000 91.6410
20910.0000 90.7420
20920.0000 91.9410
20930.0000 91.7040
20940.0000 90.9900
20950.0000 92.4300
20960.0000 91.9260
20970.0000 91.5080
20980.0000 92.5170
20990.0000 91.5120
21000.0000 91.6710
21010.0000 92.5150
21020.0000 91.6100
21030.0000 92.2490
21040.0000 92.6690
21050.0000 91.5880
21060.0000 92.3700
21070.0000 92.4120
21080.0000 91.6740
21090.0000 93.1120
21100.0000 92.6820
21110.0000 91.7290
21120.0000 92.7290
21130.0000 91.9780
21140.0000 91.9430
21150.0000 92.8770
21160.0000 91.9130
21170.0000 92.2450
21180.0000 92.8790
21190.0000 91.5150
21200.0000 92.2590
21210.0000 92.7590
21220.0000 91.8600
21230.0000 92.6500
21240.0000 92.4810
21250.0000 91.8060
21260.0000 92.8900
21270.0000 92.5580
21280.0000 92.0430
21290.0000 93.0430
21300.0000 92.2100
21310.0000 91.9020
21320.0000 92.9800
21330.0000 92.2650
21340.0000 92.1440
21350.0000 93.2840
21360.0000 92.3240
21370.0000 92.1290
21380.0000 92.9970
21390.0000 92.2510
21400.0000 92.4110
21410.0000 92.9420
21420.0000 91.8690
21430.0000 92.1000
21440.0000 92.8910
21450.0000 91.8590
21460.0000 92.1110
21470.0000 93.1290
21480.0000 92.0710
21490.0000 92.4100
21500.0000 92.8580
21510.0000 91.6580
21520.0000 92.1530
21530.0000 92.6280
21540.0000 91.7620
21550.0000 92.3600
21560.0000 92.3950
21570.0000 91.5840
21580.0000 92.6200
21590.0000 92.7250
21600.0000 91.7700
21610.0000 92.5650
21620.0000 92.2870
21630.0000 91.6610
21640.0000 92.6770
21650.0000 92.6290
21660.0000 91.6060
21670.0000 92.5220
21680.0000 92.5300
21690.0000 91.7810
21700.0000 92.6580
21710.0000 92.6460
21720.0000 91.9650
21730.0000 92.7090
21740.0000 92.6070
21750.0000 91.8430
21760.0000 92.8460
21770.0000 92.8220
21780.0000 92.0680
21790.0000 92.7580
21800.0000 93.0330
21810.0000 92.0740
21820.0000 92.8030
21830.0000 93.0990
21840.0000 92.3630
21850.0000 92.9750
21860.0000 93.0910
21870.0000 92.4020
21880.0000 93.2050
21890.0000 93.7570
21900.0000 92.5410
21910.0000 93.0610
21920.0000 93.4290
21930.0000 92.6150
21940.0000 93.2180
21950.0000 93.6770
21960.0000 92.8910
21970.0000 93.2710
21980.0000 93.7900
21990.0000 93.0730
22000.0000 93.1530
22010.0000 94.0830
22020.0000 93.3820
22030.0000 93.5190
22040.0000 93.8240
22050.0000 93.1730
22060.0000 93.3260
22070.0000 93.9580
22080.0000 93.4770
22090.0000 93.3110
22100.0000 93.9130
22110.0000 93.3910
22120.0000 93.0710
22130.0000 94.1800
22140.0000 93.4880
22150.0000 93.0880
22160.0000 93.6440
22170.0000 93.7310
22180.0000 92.9450
22190.0000 93.3010
22200.0000 93.6880
22210.0000 92.8660
22220.0000 93.1290
22230.0000 93.5540
22240.0000 93.0960
22250.0000 92.9470
22260.0000 93.3440
22270.0000 92.7680
22280.0000 92.5340
22290.0000 93.2670
22300.0000 92.9180
22310.0000 92.4800
22320.0000 92.8320
22330.0000 92.5820
22340.0000 92.1540
22350.0000 92.6330
22360.0000 92.5920
22370.0000 92.1760
22380.0000 92.4910
22390.0000 92.5170
22400.0000 91.8140
22410.0000 91.9000
22420.0000 92.5170
22430.0000 92.0830
22440.0000 91.9930
22450.0000 92.3220
22460.0000 91.9450
22470.0000 91.9370
22480.0000 92.3690
22490.0000 92.0040
22500.0000 91.7920
22510.0000 92.2830
22520.0000 92.5480
22530.0000 92.1170
22540.0000 92.2700
22550.0000 92.5940
22560.0000 92.3190
22570.0000 92.3220
22580.0000 92.9290
22590.0000 92.5260
22600.0000 92.4890
22610.0000 92.9450
22620.0000 92.9610
22630.0000 92.9530
22640.0000 93.2070
22650.0000 93.3040
22660.0000 93.0760
22670.0000 93.4100
22680.0000 93.5210
22690.0000 93.2970
22700.0000 93.3500
22710.0000 93.2890
22720.0000 93.1020
22730.0000 92.9240
22740.0000 92.8000
22750.0000 92.3820
22760.0000 91.9290
22770.0000 91.6420
22780.0000 91.1170
22790.0000 90.2240
22800.0000 89.5120
22810.0000 88.7950
22820.0000 87.6430
22830.0000 86.5010
22840.0000 85.3130
22850.0000 83.7630
22860.0000 82.0540
22870.0000 80.4310
22880.0000 78.6170
22890.0000 76.6790
22900.0000 74.6740
22910.0000 72.5360
22920.0000 70.1690
22930.0000 67.7320
22940.0000 65.3000
22950.0000 62.8100
22960.0000 60.2460
22970.0000 57.8430
22980.0000 55.2890
22990.0000 52.8050
23000.0000 50.2860
23010.0000 47.8120
23020.0000 45.2530
23030.0000 42.9980
23040.0000 40.7900
23050.0000 38.2580
23060.0000 36.1410
23070.0000 34.0510
23080.0000 32.0870
23090.0000 30.1390
23100.0000 28.3010
23110.0000 26.5300
23120.0000 24.7680
23130.0000 23.1980
23140.0000 21.6580
23150.0000 20.1810
23160.0000 18.9020
23170.0000 17.7090
23180.0000 16.5000
23190.0000 15.4730
23200.0000 14.4680
23210.0000 13.5730
23220.0000 12.7190
23230.0000 11.9160
23240.0000 11.1930
23250.0000 10.4560
23260.0000 9.8507
23270.0000 9.2965
23280.0000 8.7366
23290.0000 8.1925
23300.0000 7.6645
23310.0000 7.1447
23320.0000 6.6398
23330.0000 6.2585
23340.0000 5.8830
23350.0000 5.4297
23360.0000 5.0968
23370.0000 4.8127
23380.0000 4.4645
23390.0000 4.1688
23400.0000 3.9438
23410.0000 3.7530
23420.0000 3.5529
23430.0000 3.3971
23440.0000 3.2676
23450.0000 3.1080
23460.0000 2.9333
23470.0000 2.8023
23480.0000 2.7090
23490.0000 2.5615
23500.0000 2.4059
23510.0000 2.2604
23520.0000 2.0962
23530.0000 1.9654
23540.0000 1.8883
23550.0000 1.8009
23560.0000 1.6438
23570.0000 1.5283
23580.0000 1.4765
23590.0000 1.4328
23600.0000 1.3975
23610.0000 1.3395
23620.0000 1.2048
23630.0000 1.1132
23640.0000 1.0883
23650.0000 1.0320
23660.0000 0.9807
23670.0000 0.9767
23680.0000 0.8961
23690.0000 0.8579
23700.0000 0.9238
23710.0000 0.8881
23720.0000 0.8514
23730.0000 0.8500
23740.0000 0.7366
23750.0000 0.5766
23760.0000 0.5037
23770.0000 0.4876
23780.0000 0.4537
23790.0000 0.4424
23800.0000 0.4165
23810.0000 0.3478
23820.0000 0.4195
23830.0000 0.4621
23840.0000 0.3875
23850.0000 0.3789
23860.0000 0.3774
23870.0000 0.3741
23880.0000 0.4201
23890.0000 0.4567
23900.0000 0.4271
23910.0000 0.3474
23920.0000 0.2594
23930.0000 0.2330
23940.0000 0.1803
23950.0000 0.1796
23960.0000 0.2146
23970.0000 0.1897
23980.0000 0.1499
23990.0000 0.1446
24000.0000 0.1055
24010.0000 0.2823
24020.0000 0.3109
24030.0000 0.1847
24040.0000 0.1919
24050.0000 0.2258
24060.0000 0.2618
24070.0000 0.2606
24080.0000 0.1655
24090.0000 0.1916
24100.0000 0.1958
24110.0000 0.1500
24120.0000 0.1237
24130.0000 0.0773
24140.0000 0.0572
24150.0000 0.0260
24160.0000 0.0280
24170.0000 0.0656
24180.0000 0.0430
24190.0000 0.0612
24200.0000 0.1051
24210.0000 0.0821
24220.0000 0.0563
24230.0000 0.1872
24240.0000 0.2695
24250.0000 0.1852
24260.0000 0.0840
24270.0000 -0.0060
24280.0000 0.0436
24290.0000 0.0462
24300.0000 0.1639
24310.0000 0.0904
24320.0000 0.0007
24330.0000 -0.0810
24340.0000 0.0230
24350.0000 0.0673
24360.0000 0.0396
24370.0000 0.0202
24380.0000 0.0723
24390.0000 0.0764
24400.0000 0.0862
24410.0000 0.1211
24420.0000 0.0922
24430.0000 0.0326
24440.0000 0.1120
24450.0000 0.1524
24460.0000 0.0765
24470.0000 0.1102
24480.0000 0.0429
24490.0000 0.0350
24500.0000 -0.0080
24510.0000 -0.0200
24520.0000 0.0219
24530.0000 0.1298
24540.0000 0.0328
24550.0000 -0.0450
24560.0000 -0.0670
24570.0000 -0.0900
24580.0000 -0.0650
24590.0000 0.0789
24600.0000 0.0844
24610.0000 0.1260
24620.0000 -0.0390
24630.0000 -0.0160
24640.0000 -0.0070
24650.0000 -0.0680
24660.0000 -0.0470
24670.0000 -0.1180
24680.0000 0.0278
24690.0000 0.0261
24700.0000 0.0240
24710.0000 -0.0380
24720.0000 -0.0130
24730.0000 0.0284
24740.0000 -0.0250
24750.0000 -0.0540
24760.0000 0.0757
24770.0000 0.1341
24780.0000 0.0317
24790.0000 0.0829
24800.0000 -0.0130
24810.0000 -0.0500
24820.0000 -0.1020
24830.0000 -0.1000
24840.0000 -0.0180
24850.0000 0.0629
24860.0000 0.0306
24870.0000 -0.0550
24880.0000 -0.0150
24890.0000 0.0855
24900.0000 0.0375
24910.0000 0.0103
24920.0000 0.0008
24930.0000 0.0594
24940.0000 0.0437
24950.0000 0.0116
24960.0000 -0.1160
24970.0000 -0.0790
24980.0000 -0.0150
24990.0000 0.0106
25000.0000 -0.0330
25031.3000 0.0175
25062.7000 0.0024
25094.1000 -0.0011
25125.6000 0.0132
25157.2000 0.0147
25188.9000 -0.0151
25220.7000 -0.0057
25252.5000 -0.0015
25284.5000 0.0167
25316.5000 0.0081
25348.5000 -0.0114
25380.7000 -0.0002
25413.0000 0.0046
25445.3000 -0.0201
25477.7000 -0.0128
25510.2000 -0.0185
25542.8000 -0.0105
25575.4000 -0.0112
25608.2000 0.0041
25641.0000 -0.0227
25673.9000 -0.0066
25706.9000 -0.0294
25740.0000 -0.0116
25773.2000 -0.0094
25806.5000 -0.0066
25839.8000 0.0041
25873.2000 0.0144
25906.7000 0.0049
25940.3000 0.0224
25974.0000 -0.0131
26007.8000 0.0031
26041.7000 0.0216
26075.6000 0.0081
26109.7000 -0.0015
26143.8000 0.0125
26178.0000 0.0170
26212.3000 -0.0078
26246.7000 -0.0084
26281.2000 0.0230
26315.8000 0.0077
26350.5000 0.0037
26385.2000 0.0192
26420.1000 0.0068
26455.0000 -0.0060
26490.1000 0.0022
26525.2000 0.0013
26560.4000 0.0113
26595.7000 -0.0016
26631.2000 -0.0167
26666.7000 -0.0096
26702.3000 0.0063
26738.0000 0.0000
26773.8000 0.0117
26809.7000 -0.0030
26845.6000 -0.0007
26881.7000 -0.0009
26917.9000 0.0141
26954.2000 0.0217
26990.6000 0.0017
27027.0000 0.0057
27063.6000 0.0022
27100.3000 0.0181
27137.0000 0.0107
27173.9000 -0.0004
27210.9000 0.0293
27248.0000 0.0033
27285.1000 0.0119
27322.4000 0.0244
27359.8000 -0.0075
27397.3000 0.0119
27434.8000 0.0218
27472.5000 -0.0015
27510.3000 0.0049
27548.2000 0.0077
27586.2000 0.0007
27624.3000 0.0015
27662.5000 -0.0059
27700.8000 -0.0041
27739.3000 0.0078
27777.8000 0.0014
27816.4000 0.0159
27855.2000 0.0290
27894.0000 0.0066
27933.0000 0.0221
27972.0000 0.0153
28011.2000 0.0270
28050.5000 0.0245
28089.9000 0.0275
28129.4000 0.0108
28169.0000 0.0002
28208.7000 0.0120
28248.6000 0.0075
28288.5000 0.0088
28328.6000 0.0189
28368.8000 0.0046
28409.1000 -0.0046
28449.5000 0.0112
28490.0000 0.0063
28530.7000 0.0046
28571.4000 0.0127
28612.3000 0.0089
28653.3000 0.0157
28694.4000 0.0047
28735.6000 0.0048
28777.0000 0.0166
28818.4000 0.0110
28860.0000 0.0241
28901.7000 0.0249
28943.6000 0.0370
28985.5000 0.0067
29027.6000 0.0133
29069.8000 0.0230
29112.1000 0.0053
29154.5000 0.0176
29197.1000 0.0287
29239.8000 0.0258
29282.6000 0.0198
29325.5000 0.0091
29368.6000 0.0271
29411.8000 -0.0026
29455.1000 0.0081
29498.5000 0.0127
29542.1000 -0.0001
29585.8000 0.0014
29629.6000 0.0068
29673.6000 0.0215
29717.7000 0.0153
29761.9000 0.0137
29806.3000 0.0119
29850.7000 0.0155
29895.4000 0.0280
29940.1000 0.0145
29985.0000 0.0112
30030.0000 0.0032
30075.2000 -0.0062
30120.5000 -0.0122
30165.9000 -0.0091
30211.5000 0.0101
30257.2000 0.0103
30303.0000 0.0033
30349.0000 0.0177
30395.1000 -0.0083
30441.4000 0.0073
30487.8000 0.0204
30534.4000 0.0004
30581.0000 0.0025
30627.9000 -0.0012
30674.8000 -0.0006
30722.0000 0.0019
30769.2000 -0.0023
30816.6000 0.0088
30864.2000 0.0212
30911.9000 0.0169
30959.8000 0.0023
31007.8000 0.0066
31055.9000 0.0147
31104.2000 0.0080
31152.6000 0.0225
31201.2000 0.0140
31250.0000 0.0101
31298.9000 0.0269
31348.0000 0.0175
31397.2000 0.0060
31446.5000 0.0252
31496.1000 0.0102
31545.7000 0.0086
31595.6000 0.0091
31645.6000 0.0174
31695.7000 0.0170
31746.0000 0.0266
31796.5000 0.0110
31847.1000 0.0155
31897.9000 0.0144
31948.9000 0.0088
32000.0000 0.0194
