# from B. Hilbert, priv. comm. 
# Dated May 2024 (post-flight)
# Uses modA or modB  filters+DBS+QE+OTE (nrc_plus_ote)
# Units of transmission are PCE (photon to electron conversion efficiency)
# 
12487.9  0.000000e+00
12497.9  0.000000e+00
12507.9  5.370589e-06
12517.9  6.192845e-06
12527.9  6.838983e-06
12537.9  6.628456e-06
12547.9  7.877237e-06
12557.9  8.675460e-06
12567.9  9.331622e-06
12577.9  9.890836e-06
12587.9  1.064378e-05
12597.9  1.161139e-05
12607.9  1.291424e-05
12617.9  1.406281e-05
12627.9  1.542351e-05
12637.9  1.685805e-05
12647.9  1.854221e-05
12657.9  2.067585e-05
12667.9  2.281725e-05
12677.9  2.554521e-05
12687.9  2.843495e-05
12697.9  3.085560e-05
12707.9  3.498626e-05
12717.9  3.892844e-05
12727.9  4.424391e-05
12737.9  4.941786e-05
12747.9  5.596229e-05
12757.9  6.374620e-05
12767.9  7.216266e-05
12777.9  8.212318e-05
12787.9  9.372585e-05
12797.9  1.070921e-04
12807.9  1.228926e-04
12817.9  1.406222e-04
12827.9  1.611220e-04
12837.9  1.851520e-04
12847.9  2.119912e-04
12857.9  2.430232e-04
12867.9  2.806612e-04
12877.9  3.211252e-04
12887.9  3.721466e-04
12897.9  4.297426e-04
12907.9  4.958959e-04
12917.9  5.726403e-04
12927.9  6.722296e-04
12937.9  7.782210e-04
12947.9  9.070748e-04
12957.9  1.076133e-03
12967.9  1.265928e-03
12977.9  1.496391e-03
12987.9  1.792647e-03
12997.9  2.149633e-03
13007.9  2.575023e-03
13017.9  3.129591e-03
13027.9  3.795615e-03
13037.9  4.594063e-03
13047.9  5.590843e-03
13057.9  6.850663e-03
13067.9  8.206379e-03
13077.9  9.394977e-03
13087.9  1.046539e-02
13097.9  1.102549e-02
13107.9  1.206665e-02
13117.9  1.359203e-02
13127.9  1.495840e-02
13137.9  1.659190e-02
13147.9  1.895974e-02
13157.9  2.093979e-02
13167.9  2.388080e-02
13177.9  2.696989e-02
13187.9  3.113472e-02
13197.9  3.525597e-02
13207.9  4.197099e-02
13217.9  4.943087e-02
13227.9  5.850969e-02
13237.9  6.810432e-02
13247.9  8.124340e-02
13257.9  9.419342e-02
13267.9  1.100407e-01
13277.9  1.273766e-01
13287.9  1.476882e-01
13297.9  1.700053e-01
13307.9  1.953486e-01
13317.9  2.206749e-01
13327.9  2.473295e-01
13337.9  2.736565e-01
13347.9  2.963625e-01
13357.9  3.195940e-01
13367.9  3.377153e-01
13377.9  3.534514e-01
13387.9  3.653928e-01
13397.9  3.754520e-01
13407.9  3.821009e-01
13417.9  3.861641e-01
13427.9  3.893296e-01
13437.9  3.931612e-01
13447.9  3.928948e-01
13457.9  3.932876e-01
13467.9  3.968285e-01
13477.9  3.966803e-01
13487.9  3.981797e-01
13497.9  3.989997e-01
13507.9  4.002902e-01
13517.9  4.018098e-01
13527.9  4.021605e-01
13537.9  4.031503e-01
13547.9  4.027360e-01
13557.9  4.028416e-01
13567.9  4.029306e-01
13577.9  4.023100e-01
13587.9  4.024083e-01
13597.9  4.025797e-01
13607.9  4.020225e-01
13617.9  4.022229e-01
13627.9  4.002919e-01
13637.9  4.025891e-01
13647.9  4.015039e-01
13657.9  4.011350e-01
13667.9  4.002653e-01
13677.9  3.994490e-01
13687.9  4.018931e-01
13697.9  4.002624e-01
13707.9  4.015175e-01
13717.9  4.023167e-01
13727.9  4.002630e-01
13737.9  4.003943e-01
13747.9  4.002617e-01
13757.9  3.997276e-01
13767.9  3.999758e-01
13777.9  4.002266e-01
13787.9  3.992167e-01
13797.9  3.984302e-01
13807.9  3.985313e-01
13817.9  3.980745e-01
13827.9  3.984664e-01
13837.9  3.981112e-01
13847.9  3.982633e-01
13857.9  3.971986e-01
13867.9  3.978966e-01
13877.9  3.971014e-01
13887.9  3.970621e-01
13897.9  3.965356e-01
13907.9  3.966700e-01
13917.9  3.966172e-01
13927.9  3.974342e-01
13937.9  3.975100e-01
13947.9  3.972034e-01
13957.9  3.986474e-01
13967.9  3.983661e-01
13977.9  3.986389e-01
13987.9  3.986111e-01
13997.9  3.997583e-01
14007.9  4.004251e-01
14017.9  4.013346e-01
14027.9  4.022775e-01
14037.9  4.021697e-01
14047.9  4.023906e-01
14057.9  4.037140e-01
14067.9  4.043900e-01
14077.9  4.039660e-01
14087.9  4.065352e-01
14097.9  4.064616e-01
14107.9  4.057064e-01
14117.9  4.069901e-01
14127.9  4.084411e-01
14137.9  4.090983e-01
14147.9  4.093025e-01
14157.9  4.104113e-01
14167.9  4.120798e-01
14177.9  4.127091e-01
14187.9  4.136873e-01
14197.9  4.139590e-01
14207.9  4.138988e-01
14217.9  4.167028e-01
14227.9  4.147562e-01
14237.9  4.167600e-01
14247.9  4.169778e-01
14257.9  4.153907e-01
14267.9  4.185171e-01
14277.9  4.178630e-01
14287.9  4.183949e-01
14297.9  4.205159e-01
14307.9  4.191354e-01
14317.9  4.199754e-01
14327.9  4.192261e-01
14337.9  4.210292e-01
14347.9  4.212133e-01
14357.9  4.194626e-01
14367.9  4.207637e-01
14377.9  4.223331e-01
14387.9  4.217048e-01
14397.9  4.226263e-01
14407.9  4.227640e-01
14417.9  4.220198e-01
14427.9  4.223462e-01
14437.9  4.243064e-01
14447.9  4.245386e-01
14457.9  4.231212e-01
14467.9  4.238644e-01
14477.9  4.242240e-01
14487.9  4.246687e-01
14497.9  4.228893e-01
14507.9  4.243803e-01
14517.9  4.245683e-01
14527.9  4.234741e-01
14537.9  4.231028e-01
14547.9  4.222874e-01
14557.9  4.232182e-01
14567.9  4.229188e-01
14577.9  4.225306e-01
14587.9  4.230416e-01
14597.9  4.222636e-01
14607.9  4.212571e-01
14617.9  4.194494e-01
14627.9  4.185530e-01
14637.9  4.177202e-01
14647.9  4.178773e-01
14657.9  4.185755e-01
14667.9  4.162384e-01
14677.9  4.166358e-01
14687.9  4.166296e-01
14697.9  4.152969e-01
14707.9  4.135205e-01
14717.9  4.145356e-01
14727.9  4.145773e-01
14737.9  4.134064e-01
14747.9  4.141332e-01
14757.9  4.129719e-01
14767.9  4.119257e-01
14777.9  4.144598e-01
14787.9  4.140070e-01
14797.9  4.141876e-01
14807.9  4.132126e-01
14817.9  4.155208e-01
14827.9  4.149857e-01
14837.9  4.142845e-01
14847.9  4.152130e-01
14857.9  4.182393e-01
14867.9  4.171735e-01
14877.9  4.183649e-01
14887.9  4.186257e-01
14897.9  4.189934e-01
14907.9  4.203902e-01
14917.9  4.210170e-01
14927.9  4.219456e-01
14937.9  4.217661e-01
14947.9  4.234165e-01
14957.9  4.243721e-01
14967.9  4.252946e-01
14977.9  4.247082e-01
14987.9  4.255418e-01
14997.9  4.272624e-01
15007.9  4.290655e-01
15017.9  4.285818e-01
15027.9  4.294331e-01
15037.9  4.305512e-01
15047.9  4.301519e-01
15057.9  4.312614e-01
15067.9  4.318014e-01
15077.9  4.327860e-01
15087.9  4.342493e-01
15097.9  4.355280e-01
15107.9  4.351207e-01
15117.9  4.354702e-01
15127.9  4.367715e-01
15137.9  4.378397e-01
15147.9  4.356814e-01
15157.9  4.371607e-01
15167.9  4.361526e-01
15177.9  4.380079e-01
15187.9  4.370506e-01
15197.9  4.374581e-01
15207.9  4.368629e-01
15217.9  4.371986e-01
15227.9  4.373297e-01
15237.9  4.387381e-01
15247.9  4.370644e-01
15257.9  4.379323e-01
15267.9  4.371137e-01
15277.9  4.371169e-01
15287.9  4.372897e-01
15297.9  4.346729e-01
15307.9  4.375253e-01
15317.9  4.355294e-01
15327.9  4.343468e-01
15337.9  4.323584e-01
15347.9  4.355778e-01
15357.9  4.344992e-01
15367.9  4.337830e-01
15377.9  4.342969e-01
15387.9  4.340914e-01
15397.9  4.328775e-01
15407.9  4.326185e-01
15417.9  4.330896e-01
15427.9  4.327600e-01
15437.9  4.324140e-01
15447.9  4.348177e-01
15457.9  4.323279e-01
15467.9  4.322698e-01
15477.9  4.320024e-01
15487.9  4.339123e-01
15497.9  4.327610e-01
15507.9  4.326779e-01
15517.9  4.301113e-01
15527.9  4.322034e-01
15537.9  4.316034e-01
15547.9  4.318582e-01
15557.9  4.313814e-01
15567.9  4.303800e-01
15577.9  4.303903e-01
15587.9  4.308099e-01
15597.9  4.307273e-01
15607.9  4.294948e-01
15617.9  4.309798e-01
15627.9  4.289614e-01
15637.9  4.304606e-01
15647.9  4.301613e-01
15657.9  4.298839e-01
15667.9  4.306686e-01
15677.9  4.291459e-01
15687.9  4.303047e-01
15697.9  4.315318e-01
15707.9  4.303684e-01
15717.9  4.324174e-01
15727.9  4.341684e-01
15737.9  4.338235e-01
15747.9  4.344469e-01
15757.9  4.334089e-01
15767.9  4.356067e-01
15777.9  4.360178e-01
15787.9  4.359184e-01
15797.9  4.380207e-01
15807.9  4.397263e-01
15817.9  4.389613e-01
15827.9  4.396290e-01
15837.9  4.417461e-01
15847.9  4.420732e-01
15857.9  4.428765e-01
15867.9  4.407473e-01
15877.9  4.430919e-01
15887.9  4.420855e-01
15897.9  4.446382e-01
15907.9  4.435392e-01
15917.9  4.447323e-01
15927.9  4.443211e-01
15937.9  4.443698e-01
15947.9  4.441497e-01
15957.9  4.430679e-01
15967.9  4.459576e-01
15977.9  4.449043e-01
15987.9  4.449166e-01
15997.9  4.433506e-01
16007.9  4.466366e-01
16017.9  4.438170e-01
16027.9  4.445744e-01
16037.9  4.439718e-01
16047.9  4.468406e-01
16057.9  4.463384e-01
16067.9  4.455591e-01
16077.9  4.437422e-01
16087.9  4.453547e-01
16097.9  4.459141e-01
16107.9  4.451378e-01
16117.9  4.456411e-01
16127.9  4.444679e-01
16137.9  4.458642e-01
16147.9  4.466567e-01
16157.9  4.460834e-01
16167.9  4.474672e-01
16177.9  4.478814e-01
16187.9  4.446258e-01
16197.9  4.471409e-01
16207.9  4.450310e-01
16217.9  4.476964e-01
16227.9  4.457772e-01
16237.9  4.477504e-01
16247.9  4.475016e-01
16257.9  4.470164e-01
16267.9  4.467364e-01
16277.9  4.491221e-01
16287.9  4.471231e-01
16297.9  4.470345e-01
16307.9  4.471346e-01
16317.9  4.476409e-01
16327.9  4.492964e-01
16337.9  4.477477e-01
16347.9  4.482691e-01
16357.9  4.496176e-01
16367.9  4.484587e-01
16377.9  4.483595e-01
16387.9  4.486254e-01
16397.9  4.486908e-01
16407.9  4.476759e-01
16417.9  4.487296e-01
16427.9  4.467635e-01
16437.9  4.481164e-01
16447.9  4.442099e-01
16457.9  4.479942e-01
16467.9  4.465192e-01
16477.9  4.473054e-01
16487.9  4.455330e-01
16497.9  4.474342e-01
16507.9  4.470748e-01
16517.9  4.476685e-01
16527.9  4.499199e-01
16537.9  4.500331e-01
16547.9  4.497037e-01
16557.9  4.473593e-01
16567.9  4.469289e-01
16577.9  4.442120e-01
16587.9  4.391812e-01
16597.9  4.301369e-01
16607.9  4.218188e-01
16617.9  4.058136e-01
16627.9  3.897639e-01
16637.9  3.654878e-01
16647.9  3.413435e-01
16657.9  3.145462e-01
16667.9  2.863276e-01
16677.9  2.595340e-01
16687.9  2.299354e-01
16697.9  2.008599e-01
16707.9  1.762149e-01
16717.9  1.514116e-01
16727.9  1.304726e-01
16737.9  1.108941e-01
16747.9  9.519964e-02
16757.9  8.274797e-02
16767.9  7.188053e-02
16777.9  6.374306e-02
16787.9  5.554028e-02
16797.9  4.882653e-02
16807.9  4.288192e-02
16817.9  3.826917e-02
16827.9  3.362677e-02
16837.9  3.035976e-02
16847.9  2.695216e-02
16857.9  2.334176e-02
16867.9  1.999967e-02
16877.9  1.690318e-02
16887.9  1.416949e-02
16897.9  1.195928e-02
16907.9  1.006941e-02
16917.9  8.510082e-03
16927.9  7.111785e-03
16937.9  6.028990e-03
16947.9  5.086973e-03
16957.9  4.278939e-03
16967.9  3.649530e-03
16977.9  3.090811e-03
16987.9  2.636824e-03
16997.9  2.257925e-03
17007.9  1.940996e-03
17017.9  1.662611e-03
17027.9  1.436366e-03
17037.9  1.243356e-03
17047.9  1.071791e-03
17057.9  9.344309e-04
17067.9  8.158176e-04
17077.9  7.124607e-04
17087.9  6.235563e-04
17097.9  5.480722e-04
17107.9  4.811948e-04
17117.9  4.216722e-04
17127.9  3.746716e-04
17137.9  3.299873e-04
17147.9  2.945223e-04
17157.9  2.624211e-04
17167.9  2.344801e-04
17177.9  2.085010e-04
17187.9  1.887830e-04
17197.9  1.699765e-04
17207.9  1.530207e-04
17217.9  1.386679e-04
17227.9  1.252569e-04
17237.9  1.142212e-04
17247.9  1.030552e-04
17257.9  9.475639e-05
17267.9  8.522515e-05
17277.9  7.894692e-05
17287.9  7.094215e-05
17297.9  6.561929e-05
17307.9  6.046636e-05
17317.9  5.421288e-05
17327.9  5.197280e-05
17337.9  4.557684e-05
17347.9  4.219577e-05
17357.9  3.981828e-05
17367.9  3.586504e-05
17377.9  3.393217e-05
17387.9  3.248750e-05
17397.9  2.918708e-05
17407.9  2.672661e-05
17417.9  2.534719e-05
17427.9  2.323582e-05
17437.9  2.170629e-05
17447.9  1.988208e-05
17457.9  1.883523e-05
17467.9  1.708564e-05
17477.9  1.653763e-05
17487.9  1.607791e-05
17497.9  1.494851e-05
17507.9  0.000000e+00
17517.9  0.000000e+00
