# from B. Hilbert, priv. comm. 
# Dated May 2024 (post-flight)
# Uses modA or modB  filters+DBS+QE+OTE (nrc_plus_ote)
# Units of transmission are PCE (photon to electron conversion efficiency)
# 
39982.9  0.000000e+00
39996.5  0.000000e+00
40010.0  2.588392e-05
40023.5  2.718637e-05
40037.0  2.628360e-05
40050.5  2.434831e-05
40064.0  2.365443e-05
40077.5  2.340197e-05
40091.0  2.327746e-05
40104.5  2.382847e-05
40118.1  2.478723e-05
40131.6  2.571086e-05
40145.1  2.452362e-05
40158.6  2.246563e-05
40172.1  2.032292e-05
40185.6  1.832865e-05
40199.1  1.833585e-05
40212.6  2.054232e-05
40226.2  2.342967e-05
40239.7  2.594952e-05
40253.2  2.782263e-05
40266.7  2.826395e-05
40280.2  2.717543e-05
40293.7  2.504764e-05
40307.2  2.462133e-05
40320.7  2.641803e-05
40334.3  3.090032e-05
40347.8  3.362875e-05
40361.3  3.077919e-05
40374.8  2.847245e-05
40388.3  3.052960e-05
40401.8  3.492584e-05
40415.3  3.912149e-05
40428.8  4.178360e-05
40442.4  4.372753e-05
40455.9  4.635199e-05
40469.4  5.170638e-05
40482.9  5.680558e-05
40496.4  5.877712e-05
40509.9  5.937986e-05
40523.4  6.282123e-05
40536.9  7.213289e-05
40550.5  8.301240e-05
40564.0  9.288539e-05
40577.5  1.026944e-04
40591.0  1.116903e-04
40604.5  1.196456e-04
40618.0  1.272632e-04
40631.5  1.365301e-04
40645.0  1.482311e-04
40658.6  1.607405e-04
40672.1  1.726354e-04
40685.6  1.838147e-04
40699.1  1.951513e-04
40712.6  2.077312e-04
40726.1  2.211813e-04
40739.6  2.371224e-04
40753.1  2.571135e-04
40766.7  2.794783e-04
40780.2  3.028543e-04
40793.7  3.269454e-04
40807.2  3.534041e-04
40820.7  3.820194e-04
40834.2  4.136517e-04
40847.7  4.494706e-04
40861.2  4.887191e-04
40874.8  5.303208e-04
40888.3  5.753638e-04
40901.8  6.286218e-04
40915.3  6.878313e-04
40928.8  7.515862e-04
40942.3  8.205642e-04
40955.8  8.954092e-04
40969.3  9.766696e-04
40982.8  1.066473e-03
40996.4  1.167124e-03
41009.9  1.277656e-03
41023.4  1.399306e-03
41036.9  1.534157e-03
41050.4  1.686139e-03
41063.9  1.853886e-03
41077.4  2.036229e-03
41090.9  2.237246e-03
41104.5  2.459443e-03
41118.0  2.706447e-03
41131.5  2.982337e-03
41145.0  3.292432e-03
41158.5  3.637640e-03
41172.0  4.019302e-03
41185.5  4.440668e-03
41199.0  4.909501e-03
41212.6  5.435888e-03
41226.1  6.024861e-03
41239.6  6.681817e-03
41253.1  7.417780e-03
41266.6  8.239947e-03
41280.1  9.160138e-03
41293.6  1.018532e-02
41307.1  1.133340e-02
41320.7  1.262007e-02
41334.2  1.405765e-02
41347.7  1.566751e-02
41361.2  1.747636e-02
41374.7  1.950374e-02
41388.2  2.177290e-02
41401.7  2.432002e-02
41415.2  2.717246e-02
41428.8  3.036976e-02
41442.3  3.395503e-02
41455.8  3.796912e-02
41469.3  4.246092e-02
41482.8  4.748955e-02
41496.3  5.310197e-02
41509.8  5.937196e-02
41523.3  6.635561e-02
41536.9  7.409993e-02
41550.4  8.270180e-02
41563.9  9.221287e-02
41577.4  1.027076e-01
41590.9  1.142293e-01
41604.4  1.268081e-01
41617.9  1.405036e-01
41631.4  1.553584e-01
41645.0  1.713524e-01
41658.5  1.884350e-01
41672.0  2.064556e-01
41685.5  2.253937e-01
41699.0  2.451651e-01
41712.5  2.656473e-01
41726.0  2.865154e-01
41739.5  3.073021e-01
41753.1  3.280930e-01
41766.6  3.485856e-01
41780.1  3.685807e-01
41793.6  3.877512e-01
41807.1  4.054098e-01
41820.6  4.219031e-01
41834.1  4.370801e-01
41847.6  4.508859e-01
41861.1  4.632268e-01
41874.7  4.735825e-01
41888.2  4.826250e-01
41901.7  4.904154e-01
41915.2  4.969715e-01
41928.7  5.023469e-01
41942.2  5.065370e-01
41955.7  5.098988e-01
41969.2  5.125357e-01
41982.8  5.145618e-01
41996.3  5.160465e-01
42009.8  5.169964e-01
42023.3  5.176334e-01
42036.8  5.180172e-01
42050.3  5.182251e-01
42063.8  5.182272e-01
42077.3  5.181101e-01
42090.9  5.179646e-01
42104.4  5.177805e-01
42117.9  5.175616e-01
42131.4  5.173639e-01
42144.9  5.172298e-01
42158.4  5.171288e-01
42171.9  5.170719e-01
42185.4  5.170860e-01
42199.0  5.171898e-01
42212.5  5.173151e-01
42226.0  5.175022e-01
42239.5  5.177574e-01
42253.0  5.180631e-01
42266.5  5.183717e-01
42280.0  5.187183e-01
42293.5  5.191002e-01
42307.1  5.194926e-01
42320.6  5.198577e-01
42334.1  5.202589e-01
42347.6  5.206512e-01
42361.1  5.210108e-01
42374.6  5.213399e-01
42388.1  5.216856e-01
42401.6  5.219918e-01
42415.2  5.222691e-01
42428.7  5.225158e-01
42442.2  5.227479e-01
42455.7  5.228916e-01
42469.2  5.229677e-01
42482.7  5.229852e-01
42496.2  5.229704e-01
42509.7  5.228315e-01
42523.3  5.226282e-01
42536.8  5.223752e-01
42550.3  5.220615e-01
42563.8  5.216192e-01
42577.3  5.210921e-01
42590.8  5.204886e-01
42604.3  5.197887e-01
42617.8  5.189420e-01
42631.4  5.179434e-01
42644.9  5.167927e-01
42658.4  5.154437e-01
42671.9  5.138614e-01
42685.4  5.119479e-01
42698.9  5.097140e-01
42712.4  5.072280e-01
42725.9  5.045838e-01
42739.5  5.021115e-01
42753.0  5.005509e-01
42766.5  5.001563e-01
42780.0  5.010169e-01
42793.5  5.031941e-01
42807.0  5.056549e-01
42820.5  5.075315e-01
42834.0  5.086488e-01
42847.5  5.089489e-01
42861.1  5.085071e-01
42874.6  5.078664e-01
42888.1  5.071432e-01
42901.6  5.064328e-01
42915.1  5.056860e-01
42928.6  5.049582e-01
42942.1  5.042838e-01
42955.6  5.036258e-01
42969.2  5.029675e-01
42982.7  5.023673e-01
42996.2  5.017854e-01
43009.7  5.012373e-01
43023.2  5.007213e-01
43036.7  5.002561e-01
43050.2  4.998695e-01
43063.7  4.995041e-01
43077.3  4.991633e-01
43090.8  4.989455e-01
43104.3  4.987670e-01
43117.8  4.986369e-01
43131.3  4.985676e-01
43144.8  4.985754e-01
43158.3  4.986343e-01
43171.8  4.987605e-01
43185.4  4.988891e-01
43198.9  4.991111e-01
43212.4  4.993974e-01
43225.9  4.996812e-01
43239.4  4.999854e-01
43252.9  5.003824e-01
43266.4  5.007476e-01
43279.9  5.011011e-01
43293.5  5.014702e-01
43307.0  5.018319e-01
43320.5  5.021861e-01
43334.0  5.024664e-01
43347.5  5.026973e-01
43361.0  5.029079e-01
43374.5  5.030039e-01
43388.0  5.030088e-01
43401.6  5.029458e-01
43415.1  5.027506e-01
43428.6  5.024321e-01
43442.1  5.020141e-01
43455.6  5.014447e-01
43469.1  5.007547e-01
43482.6  4.999674e-01
43496.1  4.990187e-01
43509.7  4.979505e-01
43523.2  4.967783e-01
43536.7  4.954847e-01
43550.2  4.940944e-01
43563.7  4.926149e-01
43577.2  4.910679e-01
43590.7  4.894657e-01
43604.2  4.877861e-01
43617.8  4.860811e-01
43631.3  4.843424e-01
43644.8  4.825502e-01
43658.3  4.807018e-01
43671.8  4.788099e-01
43685.3  4.768181e-01
43698.8  4.747118e-01
43712.3  4.724307e-01
43725.8  4.699057e-01
43739.4  4.670934e-01
43752.9  4.639437e-01
43766.4  4.601898e-01
43779.9  4.558079e-01
43793.4  4.507895e-01
43806.9  4.450753e-01
43820.4  4.380243e-01
43833.9  4.300287e-01
43847.5  4.210574e-01
43861.0  4.108363e-01
43874.5  3.989577e-01
43888.0  3.859735e-01
43901.5  3.719316e-01
43915.0  3.562473e-01
43928.5  3.392273e-01
43942.0  3.213893e-01
43955.6  3.029133e-01
43969.1  2.829557e-01
43982.6  2.628104e-01
43996.1  2.426915e-01
44009.6  2.225429e-01
44023.1  2.024295e-01
44036.6  1.831357e-01
44050.1  1.648249e-01
44063.7  1.472856e-01
44077.2  1.309621e-01
44090.7  1.160167e-01
44104.2  1.023999e-01
44117.7  9.001900e-02
44131.2  7.898756e-02
44144.7  6.919403e-02
44158.2  6.052783e-02
44171.8  5.291038e-02
44185.3  4.623983e-02
44198.8  4.040919e-02
44212.3  3.534390e-02
44225.8  3.093359e-02
44239.3  2.709443e-02
44252.8  2.376207e-02
44266.3  2.087354e-02
44279.9  1.835845e-02
44293.4  1.616605e-02
44306.9  1.426692e-02
44320.4  1.261117e-02
44333.9  1.116355e-02
44347.4  9.898321e-03
44360.9  8.792273e-03
44374.4  7.820692e-03
44388.0  6.966965e-03
44401.5  6.217715e-03
44415.0  5.556659e-03
44428.5  4.972873e-03
44442.0  4.459096e-03
44455.5  4.002244e-03
44469.0  3.596715e-03
44482.5  3.237888e-03
44496.1  2.920907e-03
44509.6  2.635672e-03
44523.1  2.379264e-03
44536.6  2.152621e-03
44550.1  1.951889e-03
44563.6  1.771630e-03
44577.1  1.608133e-03
44590.6  1.461053e-03
44604.1  1.328571e-03
44617.7  1.209272e-03
44631.2  1.102785e-03
44644.7  1.008889e-03
44658.2  9.250568e-04
44671.7  8.484908e-04
44685.2  7.749347e-04
44698.7  7.067683e-04
44712.2  6.446198e-04
44725.8  5.894529e-04
44739.3  5.396043e-04
44752.8  4.944509e-04
44766.3  4.535369e-04
44779.8  4.152942e-04
44793.3  3.802090e-04
44806.8  3.493885e-04
44820.3  3.229567e-04
44833.9  2.980884e-04
44847.4  2.731277e-04
44860.9  2.498416e-04
44874.4  2.305525e-04
44887.9  2.151794e-04
44901.4  2.001862e-04
44914.9  1.840027e-04
44928.4  1.676030e-04
44942.0  1.523515e-04
44955.5  1.403732e-04
44969.0  1.310413e-04
44982.5  1.249001e-04
44996.0  1.182190e-04
45009.5  1.103599e-04
45023.0  1.007810e-04
45036.5  9.244245e-05
45050.1  8.461958e-05
45063.6  7.754700e-05
45077.1  6.809987e-05
45090.6  6.101945e-05
45104.1  5.609432e-05
45117.6  5.274908e-05
45131.1  4.795074e-05
45144.6  4.304009e-05
45158.2  3.958520e-05
45171.7  3.824547e-05
45185.2  3.722697e-05
45198.7  3.557791e-05
45212.2  3.363878e-05
45225.7  3.208669e-05
45239.2  3.108900e-05
45252.7  3.042769e-05
45266.3  2.987301e-05
45279.8  2.940804e-05
45293.3  2.877417e-05
45306.8  2.856458e-05
45320.3  2.871768e-05
45333.8  2.878710e-05
45347.3  2.718529e-05
45360.8  2.467878e-05
45374.4  2.247978e-05
45387.9  2.250915e-05
45401.4  2.346820e-05
45414.9  2.367845e-05
45428.4  2.213502e-05
45441.9  2.023624e-05
45455.4  1.887414e-05
45468.9  1.850191e-05
45482.5  1.881253e-05
45496.0  1.942979e-05
45509.5  0.000000e+00
45523.0  0.000000e+00
