# from B. Hilbert, priv. comm. 
# Dated May 2024 (post-flight)
# Uses modA or modB  filters+DBS+QE+OTE (nrc_plus_ote)
# Units of transmission are PCE (photon to electron conversion efficiency)
# 
5481.5  0.000000e+00
5491.5  0.000000e+00
5501.5  1.196890e-09
5511.5  1.746775e-09
5521.5  2.357446e-09
5531.5  3.159833e-09
5541.5  3.513203e-09
5551.5  4.012960e-09
5561.5  4.215163e-09
5571.5  4.817366e-09
5581.5  4.300077e-09
5591.5  2.728611e-09
5601.5  2.509791e-09
5611.5  2.609616e-09
5621.5  2.386896e-09
5631.5  2.558815e-09
5641.5  3.073452e-09
5651.5  4.263130e-09
5661.5  5.763073e-09
5671.5  6.757233e-09
5681.5  8.586950e-09
5691.5  8.500395e-09
5701.5  1.058185e-08
5711.5  1.083661e-08
5721.5  1.258002e-08
5731.5  1.044420e-08
5741.5  1.089193e-08
5751.5  1.076506e-08
5761.5  1.239404e-08
5771.5  1.281957e-08
5781.5  1.285850e-08
5791.5  1.332647e-08
5801.5  1.500646e-08
5811.5  1.771848e-08
5821.5  2.067600e-08
5831.5  2.341329e-08
5841.5  2.557502e-08
5851.5  2.800695e-08
5861.5  3.038929e-08
5871.5  3.865219e-08
5881.5  4.400090e-08
5891.5  4.985484e-08
5901.5  5.730317e-08
5911.5  6.093405e-08
5921.5  7.135083e-08
5931.5  7.598966e-08
5941.5  9.368272e-08
5951.5  1.024656e-07
5961.5  1.139957e-07
5971.5  1.406628e-07
5981.5  2.241651e-07
5991.5  5.971808e-07
6001.5  2.164981e-06
6011.5  7.971112e-06
6021.5  2.628820e-05
6031.5  1.277503e-04
6041.5  5.303821e-04
6051.5  1.703548e-03
6061.5  5.214050e-03
6071.5  1.276694e-02
6081.5  2.586472e-02
6091.5  4.392531e-02
6101.5  6.417980e-02
6111.5  8.313217e-02
6121.5  9.753214e-02
6131.5  1.064100e-01
6141.5  1.110309e-01
6151.5  1.133148e-01
6161.5  1.156649e-01
6171.5  1.188829e-01
6181.5  1.230763e-01
6191.5  1.280048e-01
6201.5  1.331664e-01
6211.5  1.378704e-01
6221.5  1.416650e-01
6231.5  1.443123e-01
6241.5  1.472232e-01
6251.5  1.496141e-01
6261.5  1.511902e-01
6271.5  1.519933e-01
6281.5  1.523452e-01
6291.5  1.525098e-01
6301.5  1.520838e-01
6311.5  1.514228e-01
6321.5  1.506811e-01
6331.5  1.508459e-01
6341.5  1.524087e-01
6351.5  1.551826e-01
6361.5  1.588365e-01
6371.5  1.626175e-01
6381.5  1.657660e-01
6391.5  1.682285e-01
6401.5  1.698962e-01
6411.5  1.713082e-01
6421.5  1.726979e-01
6431.5  1.742537e-01
6441.5  1.759891e-01
6451.5  1.773462e-01
6461.5  1.780448e-01
6471.5  1.784679e-01
6481.5  1.789348e-01
6491.5  1.796874e-01
6501.5  1.805550e-01
6511.5  1.813059e-01
6521.5  1.819967e-01
6531.5  1.825243e-01
6541.5  1.830687e-01
6551.5  1.835991e-01
6561.5  1.840233e-01
6571.5  1.841453e-01
6581.5  1.843654e-01
6591.5  1.850409e-01
6601.5  1.861617e-01
6611.5  1.876587e-01
6621.5  1.895313e-01
6631.5  1.917879e-01
6641.5  1.944054e-01
6651.5  1.972637e-01
6661.5  1.999447e-01
6671.5  2.017487e-01
6681.5  2.023294e-01
6691.5  2.019556e-01
6701.5  2.010509e-01
6711.5  1.997233e-01
6721.5  1.982015e-01
6731.5  1.967582e-01
6741.5  1.957000e-01
6751.5  1.951553e-01
6761.5  1.952767e-01
6771.5  1.959595e-01
6781.5  1.973195e-01
6791.5  1.992244e-01
6801.5  2.018380e-01
6811.5  2.050107e-01
6821.5  2.079859e-01
6831.5  2.103431e-01
6841.5  2.121979e-01
6851.5  2.136676e-01
6861.5  2.148453e-01
6871.5  2.157976e-01
6881.5  2.167177e-01
6891.5  2.178032e-01
6901.5  2.188689e-01
6911.5  2.194427e-01
6921.5  2.191483e-01
6931.5  2.175921e-01
6941.5  2.149713e-01
6951.5  2.119715e-01
6961.5  2.092655e-01
6971.5  2.077282e-01
6981.5  2.076872e-01
6991.5  2.094644e-01
7001.5  2.127983e-01
7011.5  2.170510e-01
7021.5  2.212883e-01
7031.5  2.248557e-01
7041.5  2.272851e-01
7051.5  2.288081e-01
7061.5  2.296849e-01
7071.5  2.303358e-01
7081.5  2.309894e-01
7091.5  2.319680e-01
7101.5  2.327767e-01
7111.5  2.329034e-01
7121.5  2.317336e-01
7131.5  2.292752e-01
7141.5  2.266675e-01
7151.5  2.248504e-01
7161.5  2.250450e-01
7171.5  2.265437e-01
7181.5  2.281480e-01
7191.5  2.283615e-01
7201.5  2.267274e-01
7211.5  2.241436e-01
7221.5  2.224895e-01
7231.5  2.234406e-01
7241.5  2.272670e-01
7251.5  2.330773e-01
7261.5  2.395685e-01
7271.5  2.453205e-01
7281.5  2.497799e-01
7291.5  2.525387e-01
7301.5  2.542929e-01
7311.5  2.550799e-01
7321.5  2.554525e-01
7331.5  2.551230e-01
7341.5  2.537597e-01
7351.5  2.513278e-01
7361.5  2.485391e-01
7371.5  2.460895e-01
7381.5  2.446307e-01
7391.5  2.444391e-01
7401.5  2.454163e-01
7411.5  2.467893e-01
7421.5  2.476624e-01
7431.5  2.481417e-01
7441.5  2.490516e-01
7451.5  2.515385e-01
7461.5  2.553237e-01
7471.5  2.599572e-01
7481.5  2.638006e-01
7491.5  2.664957e-01
7501.5  2.677824e-01
7511.5  2.685268e-01
7521.5  2.692889e-01
7531.5  2.694212e-01
7541.5  2.682433e-01
7551.5  2.646614e-01
7561.5  2.590723e-01
7571.5  2.529347e-01
7581.5  2.482792e-01
7591.5  2.463976e-01
7601.5  2.469462e-01
7611.5  2.487401e-01
7621.5  2.503844e-01
7631.5  2.518200e-01
7641.5  2.538707e-01
7651.5  2.576871e-01
7661.5  2.626776e-01
7671.5  2.677990e-01
7681.5  2.709044e-01
7691.5  2.716329e-01
7701.5  2.696891e-01
7711.5  2.664851e-01
7721.5  2.622338e-01
7731.5  2.569203e-01
7741.5  2.497493e-01
7751.5  2.403844e-01
7761.5  2.284240e-01
7771.5  2.122815e-01
7781.5  1.905284e-01
7791.5  1.626295e-01
7801.5  1.312060e-01
7811.5  1.000019e-01
7821.5  7.267786e-02
7831.5  5.086679e-02
7841.5  3.465014e-02
7851.5  2.320288e-02
7861.5  1.533966e-02
7871.5  1.016242e-02
7881.5  6.754756e-03
7891.5  4.604733e-03
7901.5  3.149840e-03
7911.5  2.219952e-03
7921.5  1.620296e-03
7931.5  1.208064e-03
7941.5  9.015417e-04
7951.5  6.741650e-04
7961.5  5.092873e-04
7971.5  3.908813e-04
7981.5  3.027854e-04
7991.5  2.363759e-04
8001.5  1.861651e-04
8011.5  1.477478e-04
8021.5  1.172607e-04
8031.5  9.371150e-05
8041.5  7.513955e-05
8051.5  6.098017e-05
8061.5  4.958892e-05
8071.5  4.040678e-05
8081.5  3.291209e-05
8091.5  2.703946e-05
8101.5  2.260585e-05
8111.5  1.890683e-05
8121.5  1.578415e-05
8131.5  1.289567e-05
8141.5  1.060366e-05
8151.5  8.939283e-06
8161.5  7.813455e-06
8171.5  6.817023e-06
8181.5  5.844855e-06
8191.5  4.954511e-06
8201.5  4.343244e-06
8211.5  3.933326e-06
8221.5  3.545351e-06
8231.5  3.048415e-06
8241.5  2.527350e-06
8251.5  2.034261e-06
8261.5  1.710096e-06
8271.5  1.552164e-06
8281.5  1.462387e-06
8291.5  1.394366e-06
8301.5  1.267790e-06
8311.5  1.171859e-06
8321.5  1.039512e-06
8331.5  9.184108e-07
8341.5  8.200409e-07
8351.5  7.391934e-07
8361.5  7.090120e-07
8371.5  6.962871e-07
8381.5  6.662167e-07
8391.5  6.073086e-07
8401.5  5.168901e-07
8411.5  4.631947e-07
8421.5  4.213135e-07
8431.5  3.710195e-07
8441.5  3.454380e-07
8451.5  3.099976e-07
8461.5  3.370038e-07
8471.5  3.475885e-07
8481.5  3.396855e-07
8491.5  3.150500e-07
8501.5  0.000000e+00
8511.5  0.000000e+00
