# from B. Hilbert, priv. comm. 
# Dated May 2024 (post-flight)
# Uses modA or modB  filters+DBS+QE+OTE (nrc_plus_ote)
# Units of transmission are PCE (photon to electron conversion efficiency)
# 
12487.9  0.000000e+00
12497.9  0.000000e+00
12507.9  6.407766e-06
12517.9  7.157228e-06
12527.9  7.359900e-06
12537.9  8.488325e-06
12547.9  9.118586e-06
12557.9  9.717683e-06
12567.9  1.052010e-05
12577.9  1.137758e-05
12587.9  1.274045e-05
12597.9  1.370298e-05
12607.9  1.524072e-05
12617.9  1.610048e-05
12627.9  1.867178e-05
12637.9  2.048970e-05
12647.9  2.243452e-05
12657.9  2.494959e-05
12667.9  2.744112e-05
12677.9  3.036633e-05
12687.9  3.329264e-05
12697.9  3.765166e-05
12707.9  4.271371e-05
12717.9  4.760242e-05
12727.9  5.381268e-05
12737.9  6.061630e-05
12747.9  6.899581e-05
12757.9  7.839719e-05
12767.9  9.021250e-05
12777.9  1.026559e-04
12787.9  1.176622e-04
12797.9  1.350246e-04
12807.9  1.546908e-04
12817.9  1.784280e-04
12827.9  2.048575e-04
12837.9  2.347142e-04
12847.9  2.693311e-04
12857.9  3.105960e-04
12867.9  3.599704e-04
12877.9  4.119194e-04
12887.9  4.788609e-04
12897.9  5.586490e-04
12907.9  6.467290e-04
12917.9  7.503507e-04
12927.9  8.877433e-04
12937.9  1.039781e-03
12947.9  1.217308e-03
12957.9  1.456025e-03
12967.9  1.727610e-03
12977.9  2.066489e-03
12987.9  2.499133e-03
12997.9  3.013932e-03
13007.9  3.658498e-03
13017.9  4.455894e-03
13027.9  5.454898e-03
13037.9  6.633987e-03
13047.9  8.013456e-03
13057.9  9.481488e-03
13067.9  1.066087e-02
13077.9  1.123531e-02
13087.9  1.242374e-02
13097.9  1.387578e-02
13107.9  1.521329e-02
13117.9  1.669286e-02
13127.9  1.900277e-02
13137.9  2.129051e-02
13147.9  2.432238e-02
13157.9  2.694615e-02
13167.9  3.103440e-02
13177.9  3.531419e-02
13187.9  4.162066e-02
13197.9  4.886809e-02
13207.9  5.788930e-02
13217.9  6.757196e-02
13227.9  8.012791e-02
13237.9  9.340559e-02
13247.9  1.100856e-01
13257.9  1.265010e-01
13267.9  1.470950e-01
13277.9  1.693124e-01
13287.9  1.946203e-01
13297.9  2.209908e-01
13307.9  2.483022e-01
13317.9  2.746363e-01
13327.9  2.996990e-01
13337.9  3.238887e-01
13347.9  3.452110e-01
13357.9  3.611774e-01
13367.9  3.761084e-01
13377.9  3.880895e-01
13387.9  3.967004e-01
13397.9  4.019626e-01
13407.9  4.054672e-01
13417.9  4.083645e-01
13427.9  4.102987e-01
13437.9  4.138012e-01
13447.9  4.126529e-01
13457.9  4.149523e-01
13467.9  4.158630e-01
13477.9  4.171363e-01
13487.9  4.184465e-01
13497.9  4.194849e-01
13507.9  4.213486e-01
13517.9  4.207768e-01
13527.9  4.212812e-01
13537.9  4.234726e-01
13547.9  4.224112e-01
13557.9  4.230855e-01
13567.9  4.223047e-01
13577.9  4.220613e-01
13587.9  4.219863e-01
13597.9  4.211317e-01
13607.9  4.205943e-01
13617.9  4.194482e-01
13627.9  4.193642e-01
13637.9  4.179304e-01
13647.9  4.203530e-01
13657.9  4.210585e-01
13667.9  4.196741e-01
13677.9  4.202651e-01
13687.9  4.202320e-01
13697.9  4.208777e-01
13707.9  4.220008e-01
13717.9  4.211733e-01
13727.9  4.207654e-01
13737.9  4.198866e-01
13747.9  4.196687e-01
13757.9  4.207112e-01
13767.9  4.200054e-01
13777.9  4.200976e-01
13787.9  4.202661e-01
13797.9  4.201053e-01
13807.9  4.182371e-01
13817.9  4.178119e-01
13827.9  4.201139e-01
13837.9  4.189187e-01
13847.9  4.172930e-01
13857.9  4.188722e-01
13867.9  4.182636e-01
13877.9  4.164651e-01
13887.9  4.174704e-01
13897.9  4.186350e-01
13907.9  4.192203e-01
13917.9  4.180324e-01
13927.9  4.197168e-01
13937.9  4.190415e-01
13947.9  4.211335e-01
13957.9  4.206131e-01
13967.9  4.212494e-01
13977.9  4.228318e-01
13987.9  4.227019e-01
13997.9  4.216549e-01
14007.9  4.244949e-01
14017.9  4.244172e-01
14027.9  4.247792e-01
14037.9  4.269789e-01
14047.9  4.275548e-01
14057.9  4.286930e-01
14067.9  4.283800e-01
14077.9  4.288243e-01
14087.9  4.289470e-01
14097.9  4.306616e-01
14107.9  4.300935e-01
14117.9  4.326534e-01
14127.9  4.329986e-01
14137.9  4.349953e-01
14147.9  4.350303e-01
14157.9  4.360596e-01
14167.9  4.372104e-01
14177.9  4.357687e-01
14187.9  4.389998e-01
14197.9  4.392117e-01
14207.9  4.395205e-01
14217.9  4.390431e-01
14227.9  4.416648e-01
14237.9  4.423215e-01
14247.9  4.428173e-01
14257.9  4.430279e-01
14267.9  4.428652e-01
14277.9  4.440811e-01
14287.9  4.438515e-01
14297.9  4.457074e-01
14307.9  4.467904e-01
14317.9  4.473655e-01
14327.9  4.465813e-01
14337.9  4.458695e-01
14347.9  4.478133e-01
14357.9  4.488686e-01
14367.9  4.477759e-01
14377.9  4.489082e-01
14387.9  4.492480e-01
14397.9  4.481444e-01
14407.9  4.507625e-01
14417.9  4.493359e-01
14427.9  4.505624e-01
14437.9  4.500746e-01
14447.9  4.512685e-01
14457.9  4.511778e-01
14467.9  4.514022e-01
14477.9  4.505390e-01
14487.9  4.537448e-01
14497.9  4.535805e-01
14507.9  4.520815e-01
14517.9  4.537244e-01
14527.9  4.547865e-01
14537.9  4.520876e-01
14547.9  4.512327e-01
14557.9  4.523432e-01
14567.9  4.503243e-01
14577.9  4.506242e-01
14587.9  4.515206e-01
14597.9  4.508152e-01
14607.9  4.484421e-01
14617.9  4.481513e-01
14627.9  4.479030e-01
14637.9  4.478261e-01
14647.9  4.473453e-01
14657.9  4.468186e-01
14667.9  4.454090e-01
14677.9  4.448160e-01
14687.9  4.450939e-01
14697.9  4.444807e-01
14707.9  4.432781e-01
14717.9  4.416486e-01
14727.9  4.426803e-01
14737.9  4.407712e-01
14747.9  4.431971e-01
14757.9  4.420401e-01
14767.9  4.444526e-01
14777.9  4.421830e-01
14787.9  4.431184e-01
14797.9  4.435638e-01
14807.9  4.437000e-01
14817.9  4.427468e-01
14827.9  4.449439e-01
14837.9  4.447687e-01
14847.9  4.467356e-01
14857.9  4.481133e-01
14867.9  4.472606e-01
14877.9  4.482384e-01
14887.9  4.490411e-01
14897.9  4.498723e-01
14907.9  4.499772e-01
14917.9  4.532158e-01
14927.9  4.529779e-01
14937.9  4.541650e-01
14947.9  4.533165e-01
14957.9  4.549289e-01
14967.9  4.565163e-01
14977.9  4.558143e-01
14987.9  4.569691e-01
14997.9  4.605655e-01
15007.9  4.597746e-01
15017.9  4.603019e-01
15027.9  4.601052e-01
15037.9  4.623537e-01
15047.9  4.637910e-01
15057.9  4.630951e-01
15067.9  4.657327e-01
15077.9  4.648815e-01
15087.9  4.662193e-01
15097.9  4.674243e-01
15107.9  4.687124e-01
15117.9  4.676035e-01
15127.9  4.695623e-01
15137.9  4.698312e-01
15147.9  4.701527e-01
15157.9  4.705432e-01
15167.9  4.722238e-01
15177.9  4.734316e-01
15187.9  4.702662e-01
15197.9  4.723989e-01
15207.9  4.715136e-01
15217.9  4.698205e-01
15227.9  4.745454e-01
15237.9  4.697717e-01
15247.9  4.696223e-01
15257.9  4.704369e-01
15267.9  4.712423e-01
15277.9  4.704716e-01
15287.9  4.691253e-01
15297.9  4.688821e-01
15307.9  4.692717e-01
15317.9  4.685865e-01
15327.9  4.690330e-01
15337.9  4.687098e-01
15347.9  4.666981e-01
15357.9  4.680116e-01
15367.9  4.671449e-01
15377.9  4.692582e-01
15387.9  4.678125e-01
15397.9  4.672239e-01
15407.9  4.673687e-01
15417.9  4.671467e-01
15427.9  4.672405e-01
15437.9  4.689590e-01
15447.9  4.645236e-01
15457.9  4.676837e-01
15467.9  4.675542e-01
15477.9  4.667216e-01
15487.9  4.674777e-01
15497.9  4.639343e-01
15507.9  4.665020e-01
15517.9  4.654998e-01
15527.9  4.664880e-01
15537.9  4.649519e-01
15547.9  4.670954e-01
15557.9  4.640378e-01
15567.9  4.638475e-01
15577.9  4.639451e-01
15587.9  4.640181e-01
15597.9  4.646014e-01
15607.9  4.647059e-01
15617.9  4.651617e-01
15627.9  4.630272e-01
15637.9  4.632482e-01
15647.9  4.626182e-01
15657.9  4.632629e-01
15667.9  4.642187e-01
15677.9  4.657008e-01
15687.9  4.649960e-01
15697.9  4.643559e-01
15707.9  4.656975e-01
15717.9  4.654789e-01
15727.9  4.684284e-01
15737.9  4.663813e-01
15747.9  4.699950e-01
15757.9  4.698748e-01
15767.9  4.722026e-01
15777.9  4.730333e-01
15787.9  4.724604e-01
15797.9  4.739996e-01
15807.9  4.746223e-01
15817.9  4.760006e-01
15827.9  4.772503e-01
15837.9  4.779337e-01
15847.9  4.804497e-01
15857.9  4.792647e-01
15867.9  4.785522e-01
15877.9  4.797838e-01
15887.9  4.793845e-01
15897.9  4.791265e-01
15907.9  4.801628e-01
15917.9  4.814888e-01
15927.9  4.829017e-01
15937.9  4.820495e-01
15947.9  4.809105e-01
15957.9  4.826575e-01
15967.9  4.832685e-01
15977.9  4.833284e-01
15987.9  4.832573e-01
15997.9  4.811279e-01
16007.9  4.832096e-01
16017.9  4.839405e-01
16027.9  4.831420e-01
16037.9  4.828519e-01
16047.9  4.825408e-01
16057.9  4.828410e-01
16067.9  4.838946e-01
16077.9  4.849804e-01
16087.9  4.823201e-01
16097.9  4.827053e-01
16107.9  4.834688e-01
16117.9  4.836080e-01
16127.9  4.822937e-01
16137.9  4.832568e-01
16147.9  4.820756e-01
16157.9  4.838400e-01
16167.9  4.830948e-01
16177.9  4.856144e-01
16187.9  4.831082e-01
16197.9  4.845244e-01
16207.9  4.830893e-01
16217.9  4.849890e-01
16227.9  4.844051e-01
16237.9  4.835610e-01
16247.9  4.837161e-01
16257.9  4.841895e-01
16267.9  4.829631e-01
16277.9  4.844048e-01
16287.9  4.857629e-01
16297.9  4.839491e-01
16307.9  4.852226e-01
16317.9  4.859643e-01
16327.9  4.859389e-01
16337.9  4.853715e-01
16347.9  4.851772e-01
16357.9  4.860791e-01
16367.9  4.857841e-01
16377.9  4.862960e-01
16387.9  4.843278e-01
16397.9  4.861879e-01
16407.9  4.841725e-01
16417.9  4.842159e-01
16427.9  4.851616e-01
16437.9  4.847401e-01
16447.9  4.817976e-01
16457.9  4.840411e-01
16467.9  4.843282e-01
16477.9  4.867951e-01
16487.9  4.865511e-01
16497.9  4.858434e-01
16507.9  4.881437e-01
16517.9  4.877312e-01
16527.9  4.895618e-01
16537.9  4.900891e-01
16547.9  4.898875e-01
16557.9  4.867859e-01
16567.9  4.840131e-01
16577.9  4.793736e-01
16587.9  4.700320e-01
16597.9  4.573746e-01
16607.9  4.415384e-01
16617.9  4.217241e-01
16627.9  3.971796e-01
16637.9  3.686332e-01
16647.9  3.398277e-01
16657.9  3.099801e-01
16667.9  2.764779e-01
16677.9  2.453856e-01
16687.9  2.143133e-01
16697.9  1.852072e-01
16707.9  1.598956e-01
16717.9  1.362423e-01
16727.9  1.160290e-01
16737.9  9.946488e-02
16747.9  8.596698e-02
16757.9  7.578103e-02
16767.9  6.608583e-02
16777.9  5.827756e-02
16787.9  5.062767e-02
16797.9  4.473156e-02
16807.9  3.952437e-02
16817.9  3.575732e-02
16827.9  3.144158e-02
16837.9  2.779028e-02
16847.9  2.387132e-02
16857.9  2.010535e-02
16867.9  1.697228e-02
16877.9  1.428344e-02
16887.9  1.190517e-02
16897.9  1.002879e-02
16907.9  8.420815e-03
16917.9  7.080293e-03
16927.9  5.933670e-03
16937.9  5.021562e-03
16947.9  4.238512e-03
16957.9  3.570931e-03
16967.9  3.054356e-03
16977.9  2.588211e-03
16987.9  2.205114e-03
16997.9  1.891567e-03
17007.9  1.635712e-03
17017.9  1.400244e-03
17027.9  1.209570e-03
17037.9  1.047798e-03
17047.9  9.102932e-04
17057.9  7.949010e-04
17067.9  6.940506e-04
17077.9  6.055228e-04
17087.9  5.313384e-04
17097.9  4.687400e-04
17107.9  4.129910e-04
17117.9  3.666590e-04
17127.9  3.265036e-04
17137.9  2.862205e-04
17147.9  2.571880e-04
17157.9  2.287610e-04
17167.9  2.058612e-04
17177.9  1.845381e-04
17187.9  1.654357e-04
17197.9  1.495109e-04
17207.9  1.358054e-04
17217.9  1.241594e-04
17227.9  1.105174e-04
17237.9  1.012721e-04
17247.9  9.255666e-05
17257.9  8.435274e-05
17267.9  7.567659e-05
17277.9  7.092889e-05
17287.9  6.330825e-05
17297.9  5.963685e-05
17307.9  5.453636e-05
17317.9  5.003150e-05
17327.9  4.593707e-05
17337.9  4.071932e-05
17347.9  3.955986e-05
17357.9  3.526126e-05
17367.9  3.311972e-05
17377.9  3.162364e-05
17387.9  2.787469e-05
17397.9  2.655565e-05
17407.9  2.444074e-05
17417.9  2.200408e-05
17427.9  2.092591e-05
17437.9  2.072695e-05
17447.9  1.858604e-05
17457.9  1.834682e-05
17467.9  1.670437e-05
17477.9  1.665798e-05
17487.9  1.581305e-05
17497.9  1.365463e-05
17507.9  0.000000e+00
17517.9  0.000000e+00
