# from B. Hilbert, priv. comm. 
# Dated May 2024 (post-flight)
# Uses modA or modB  filters+DBS+QE+OTE (nrc_plus_ote)
# Units of transmission are PCE (photon to electron conversion efficiency)
# 
43469.1  0.000000e+00
43482.6  0.000000e+00
43496.1  1.737033e-05
43509.7  1.727089e-05
43523.2  1.766368e-05
43536.7  1.725859e-05
43550.2  1.605711e-05
43563.7  1.362423e-05
43577.2  1.266723e-05
43590.7  1.522346e-05
43604.2  1.696050e-05
43617.8  1.753038e-05
43631.3  1.995928e-05
43644.8  2.373780e-05
43658.3  2.790154e-05
43671.8  3.109919e-05
43685.3  3.280083e-05
43698.8  3.294816e-05
43712.3  3.187379e-05
43725.8  3.549935e-05
43739.4  4.215934e-05
43752.9  5.156604e-05
43766.4  5.741047e-05
43779.9  6.074815e-05
43793.4  6.275700e-05
43806.9  6.410966e-05
43820.4  6.514361e-05
43833.9  6.731807e-05
43847.5  7.065958e-05
43861.0  7.507492e-05
43874.5  7.987196e-05
43888.0  8.425219e-05
43901.5  8.767896e-05
43915.0  8.824302e-05
43928.5  9.052404e-05
43942.0  9.537923e-05
43955.6  1.038506e-04
43969.1  1.124082e-04
43982.6  1.226138e-04
43996.1  1.345516e-04
44009.6  1.483558e-04
44023.1  1.575995e-04
44036.6  1.654842e-04
44050.1  1.728971e-04
44063.7  1.828506e-04
44077.2  1.929935e-04
44090.7  2.047894e-04
44104.2  2.200971e-04
44117.7  2.384829e-04
44131.2  2.557814e-04
44144.7  2.722780e-04
44158.2  2.917629e-04
44171.8  3.158115e-04
44185.3  3.419700e-04
44198.8  3.687633e-04
44212.3  3.987217e-04
44225.8  4.307148e-04
44239.3  4.642591e-04
44252.8  4.973322e-04
44266.3  5.353810e-04
44279.9  5.770920e-04
44293.4  6.221017e-04
44306.9  6.665242e-04
44320.4  7.162747e-04
44333.9  7.716310e-04
44347.4  8.328765e-04
44360.9  8.983768e-04
44374.4  9.698877e-04
44388.0  1.048933e-03
44401.5  1.131609e-03
44415.0  1.219677e-03
44428.5  1.314947e-03
44442.0  1.423967e-03
44455.5  1.543609e-03
44469.0  1.673561e-03
44482.5  1.813820e-03
44496.1  1.968497e-03
44509.6  2.136884e-03
44523.1  2.320565e-03
44536.6  2.524845e-03
44550.1  2.753574e-03
44563.6  3.006824e-03
44577.1  3.285593e-03
44590.6  3.593481e-03
44604.1  3.933180e-03
44617.7  4.308505e-03
44631.2  4.724332e-03
44644.7  5.185719e-03
44658.2  5.698116e-03
44671.7  6.271076e-03
44685.2  6.912650e-03
44698.7  7.630395e-03
44712.2  8.437827e-03
44725.8  9.341448e-03
44739.3  1.034977e-02
44752.8  1.147697e-02
44766.3  1.276004e-02
44779.8  1.420501e-02
44793.3  1.583169e-02
44806.8  1.766644e-02
44820.3  1.974405e-02
44833.9  2.208854e-02
44847.4  2.474327e-02
44860.9  2.776991e-02
44874.4  3.120158e-02
44887.9  3.509844e-02
44901.4  3.954921e-02
44914.9  4.460296e-02
44928.4  5.034808e-02
44942.0  5.691795e-02
44955.5  6.438515e-02
44969.0  7.286467e-02
44982.5  8.250292e-02
44996.0  9.340434e-02
45009.5  1.057054e-01
45023.0  1.195581e-01
45036.5  1.349846e-01
45050.1  1.521509e-01
45063.6  1.711683e-01
45077.1  1.916475e-01
45090.6  2.138204e-01
45104.1  2.376587e-01
45117.6  2.622668e-01
45131.1  2.876022e-01
45144.6  3.136201e-01
45158.2  3.390671e-01
45171.7  3.633931e-01
45185.2  3.869473e-01
45198.7  4.086234e-01
45212.2  4.274895e-01
45225.7  4.446101e-01
45239.2  4.594378e-01
45252.7  4.709003e-01
45266.3  4.806204e-01
45279.8  4.885744e-01
45293.3  4.937650e-01
45306.8  4.977730e-01
45320.3  5.007109e-01
45333.8  5.020952e-01
45347.3  5.027855e-01
45360.8  5.029710e-01
45374.4  5.025140e-01
45387.9  5.017985e-01
45401.4  5.009653e-01
45414.9  4.999291e-01
45428.4  4.989220e-01
45441.9  4.980007e-01
45455.4  4.971102e-01
45468.9  4.963301e-01
45482.5  4.957010e-01
45496.0  4.951974e-01
45509.5  4.948670e-01
45523.0  4.946833e-01
45536.5  4.945832e-01
45550.0  4.947186e-01
45563.5  4.948923e-01
45577.0  4.951501e-01
45590.5  4.955460e-01
45604.1  4.959568e-01
45617.6  4.964307e-01
45631.1  4.969547e-01
45644.6  4.974477e-01
45658.1  4.979494e-01
45671.6  4.985105e-01
45685.1  4.990051e-01
45698.6  4.994645e-01
45712.2  4.999034e-01
45725.7  5.002803e-01
45739.2  5.006279e-01
45752.7  5.008861e-01
45766.2  5.010795e-01
45779.7  5.012380e-01
45793.2  5.013534e-01
45806.7  5.013801e-01
45820.3  5.013679e-01
45833.8  5.012731e-01
45847.3  5.011426e-01
45860.8  5.009937e-01
45874.3  5.007333e-01
45887.8  5.004623e-01
45901.3  5.001927e-01
45914.8  4.998660e-01
45928.4  4.995108e-01
45941.9  4.991337e-01
45955.4  4.987674e-01
45968.9  4.983899e-01
45982.4  4.980039e-01
45995.9  4.975939e-01
46009.4  4.972066e-01
46022.9  4.968414e-01
46036.5  4.964810e-01
46050.0  4.961238e-01
46063.5  4.957626e-01
46077.0  4.954591e-01
46090.5  4.951402e-01
46104.0  4.948248e-01
46117.5  4.945192e-01
46131.0  4.942173e-01
46144.6  4.939658e-01
46158.1  4.937125e-01
46171.6  4.934424e-01
46185.1  4.932096e-01
46198.6  4.930030e-01
46212.1  4.927617e-01
46225.6  4.925234e-01
46239.1  4.922930e-01
46252.7  4.920338e-01
46266.2  4.918196e-01
46279.7  4.915755e-01
46293.2  4.912806e-01
46306.7  4.910253e-01
46320.2  4.907122e-01
46333.7  4.904242e-01
46347.2  4.900812e-01
46360.8  4.896910e-01
46374.3  4.893454e-01
46387.8  4.889807e-01
46401.3  4.885323e-01
46414.8  4.881081e-01
46428.3  4.876791e-01
46441.8  4.871733e-01
46455.3  4.866986e-01
46468.8  4.861820e-01
46482.4  4.856057e-01
46495.9  4.850939e-01
46509.4  4.845399e-01
46522.9  4.838979e-01
46536.4  4.832826e-01
46549.9  4.826712e-01
46563.4  4.819838e-01
46576.9  4.813213e-01
46590.5  4.805707e-01
46604.0  4.798800e-01
46617.5  4.792067e-01
46631.0  4.784417e-01
46644.5  4.777289e-01
46658.0  4.770036e-01
46671.5  4.762098e-01
46685.0  4.754940e-01
46698.6  4.747339e-01
46712.1  4.738939e-01
46725.6  4.731253e-01
46739.1  4.723651e-01
46752.6  4.715222e-01
46766.1  4.707146e-01
46779.6  4.699018e-01
46793.1  4.690125e-01
46806.7  4.681849e-01
46820.2  4.672531e-01
46833.7  4.663673e-01
46847.2  4.654718e-01
46860.7  4.644907e-01
46874.2  4.635638e-01
46887.7  4.625726e-01
46901.2  4.614885e-01
46914.8  4.604482e-01
46928.3  4.593517e-01
46941.8  4.581499e-01
46955.3  4.569215e-01
46968.8  4.556517e-01
46982.3  4.542820e-01
46995.8  4.528278e-01
47009.3  4.512978e-01
47022.9  4.495935e-01
47036.4  4.478092e-01
47049.9  4.459314e-01
47063.4  4.437892e-01
47076.9  4.415050e-01
47090.4  4.390400e-01
47103.9  4.363210e-01
47117.4  4.333783e-01
47131.0  4.301569e-01
47144.5  4.265100e-01
47158.0  4.226441e-01
47171.5  4.183474e-01
47185.0  4.135673e-01
47198.5  4.085107e-01
47212.0  4.027350e-01
47225.5  3.965389e-01
47239.1  3.900101e-01
47252.6  3.824512e-01
47266.1  3.745858e-01
47279.6  3.661339e-01
47293.1  3.568433e-01
47306.6  3.472884e-01
47320.1  3.368342e-01
47333.6  3.259061e-01
47347.1  3.147673e-01
47360.7  3.026156e-01
47374.2  2.903978e-01
47387.7  2.778440e-01
47401.2  2.648291e-01
47414.7  2.519597e-01
47428.2  2.387502e-01
47441.7  2.255968e-01
47455.2  2.127353e-01
47468.8  1.997328e-01
47482.3  1.872063e-01
47495.8  1.749896e-01
47509.3  1.630863e-01
47522.8  1.517671e-01
47536.3  1.408107e-01
47549.8  1.304338e-01
47563.3  1.206421e-01
47576.9  1.113203e-01
47590.4  1.026347e-01
47603.9  9.449088e-02
47617.4  8.689210e-02
47630.9  7.985360e-02
47644.4  7.329385e-02
47657.9  6.725156e-02
47671.4  6.168031e-02
47685.0  5.654522e-02
47698.5  5.182980e-02
47712.0  4.749305e-02
47725.5  4.352155e-02
47739.0  3.988405e-02
47752.5  3.656111e-02
47766.0  3.352043e-02
47779.5  3.074085e-02
47793.1  2.820366e-02
47806.6  2.588192e-02
47820.1  2.376783e-02
47833.6  2.183451e-02
47847.1  2.006883e-02
47860.6  1.846319e-02
47874.1  1.699228e-02
47887.6  1.564999e-02
47901.2  1.441916e-02
47914.7  1.328877e-02
47928.2  1.226026e-02
47941.7  1.131744e-02
47955.2  1.045700e-02
47968.7  9.667401e-03
47982.2  8.941370e-03
47995.7  8.281015e-03
48009.3  7.673495e-03
48022.8  7.117902e-03
48036.3  6.604713e-03
48049.8  6.129916e-03
48063.3  5.692934e-03
48076.8  5.288123e-03
48090.3  4.914455e-03
48103.8  4.571561e-03
48117.4  4.255152e-03
48130.9  3.970442e-03
48144.4  3.706404e-03
48157.9  3.462331e-03
48171.4  3.234830e-03
48184.9  3.022461e-03
48198.4  2.826281e-03
48211.9  2.643960e-03
48225.5  2.474210e-03
48239.0  2.317315e-03
48252.5  2.171256e-03
48266.0  2.035264e-03
48279.5  1.907661e-03
48293.0  1.788069e-03
48306.5  1.680615e-03
48320.0  1.581513e-03
48333.5  1.491791e-03
48347.1  1.405829e-03
48360.6  1.323524e-03
48374.1  1.248222e-03
48387.6  1.178340e-03
48401.1  1.116078e-03
48414.6  1.055772e-03
48428.1  9.973487e-04
48441.6  9.421296e-04
48455.2  8.900645e-04
48468.7  8.421150e-04
48482.2  7.963998e-04
48495.7  7.525833e-04
48509.2  7.122183e-04
48522.7  6.744663e-04
48536.2  6.393699e-04
48549.7  6.068420e-04
48563.3  5.770717e-04
48576.8  5.514317e-04
48590.3  5.279121e-04
48603.8  5.019567e-04
48617.3  4.762388e-04
48630.8  4.499888e-04
48644.3  4.281553e-04
48657.8  4.089284e-04
48671.4  3.907038e-04
48684.9  3.731614e-04
48698.4  3.560649e-04
48711.9  3.419894e-04
48725.4  3.299752e-04
48738.9  3.163861e-04
48752.4  3.028080e-04
48765.9  2.884261e-04
48779.5  2.762828e-04
48793.0  2.660827e-04
48806.5  2.548792e-04
48820.0  2.438494e-04
48833.5  2.332361e-04
48847.0  2.244877e-04
48860.5  2.179230e-04
48874.0  2.095682e-04
48887.6  2.006935e-04
48901.1  1.906735e-04
48914.6  1.818526e-04
48928.1  1.750043e-04
48941.6  1.678236e-04
48955.1  1.606345e-04
48968.6  1.541395e-04
48982.1  1.478480e-04
48995.7  1.414665e-04
49009.2  1.336071e-04
49022.7  1.241250e-04
49036.2  1.164859e-04
49049.7  1.098289e-04
49063.2  1.058135e-04
49076.7  1.012071e-04
49090.2  9.517287e-05
49103.8  9.035845e-05
49117.3  8.632365e-05
49130.8  8.495605e-05
49144.3  8.408737e-05
49157.8  8.297370e-05
49171.3  8.195656e-05
49184.8  8.105482e-05
49198.3  8.010629e-05
49211.8  7.912277e-05
49225.4  7.888980e-05
49238.9  7.909738e-05
49252.4  8.057629e-05
49265.9  8.109580e-05
49279.4  8.055908e-05
49292.9  7.879569e-05
49306.4  7.673869e-05
49319.9  7.470024e-05
49333.5  7.184961e-05
49347.0  6.710134e-05
49360.5  6.228681e-05
49374.0  5.754079e-05
49387.5  5.439972e-05
49401.0  5.158331e-05
49414.5  4.754934e-05
49428.0  4.404229e-05
49441.6  4.108777e-05
49455.1  3.972612e-05
49468.6  3.946406e-05
49482.1  3.896621e-05
49495.6  3.848524e-05
49509.1  3.817393e-05
49522.6  3.779464e-05
49536.1  3.727423e-05
49549.7  3.644374e-05
49563.2  3.551718e-05
49576.7  3.566463e-05
49590.2  3.591351e-05
49603.7  3.425876e-05
49617.2  3.196772e-05
49630.7  2.847917e-05
49644.2  2.633941e-05
49657.8  2.507424e-05
49671.3  2.296601e-05
49684.8  2.090580e-05
49698.3  1.927379e-05
49711.8  1.904006e-05
49725.3  2.196835e-05
49738.8  2.375661e-05
49752.3  2.432212e-05
49765.9  2.229621e-05
49779.4  1.976310e-05
49792.9  1.929489e-05
49806.4  1.875760e-05
49819.9  1.771362e-05
49833.4  1.679062e-05
49846.9  1.615056e-05
49860.4  1.705471e-05
49874.0  1.876917e-05
49887.5  1.740116e-05
49901.0  1.631023e-05
49914.5  1.518997e-05
49928.0  1.576754e-05
49941.5  1.895904e-05
49955.0  2.042665e-05
49968.5  2.011748e-05
49982.1  1.633390e-05
49995.6  1.281140e-05
50009.1  8.520275e-06
50022.6  7.869845e-06
50036.1  7.504038e-06
50049.6  7.572347e-06
50063.1  8.266059e-06
50076.6  9.424792e-06
50090.1  1.099822e-05
50103.7  1.019930e-05
50117.2  9.095483e-06
50130.7  7.506692e-06
50144.2  7.003225e-06
50157.7  7.941772e-06
50171.2  8.978813e-06
50184.7  9.485405e-06
50198.2  9.942608e-06
50211.8  1.044851e-05
50225.3  9.619847e-06
50238.8  7.882407e-06
50252.3  4.333157e-06
50265.8  4.194360e-06
50279.3  4.063120e-06
50292.8  4.190755e-06
50306.3  3.240763e-06
50319.9  7.911398e-07
50333.4  1.145940e-06
50346.9  2.580085e-06
50360.4  3.966040e-06
50373.9  4.320659e-06
50387.4  4.758053e-06
50400.9  5.024711e-06
50414.4  5.391828e-06
50428.0  5.949748e-06
50441.5  5.819768e-06
50455.0  5.245428e-06
50468.5  4.665271e-06
50482.0  4.171272e-06
50495.5  3.144908e-06
50509.0  2.361494e-06
50522.5  1.103952e-06
50536.1  2.472792e-07
50549.6  1.148282e-08
50563.1  4.734137e-09
50576.6  4.727559e-09
50590.1  4.719287e-09
50603.6  4.712681e-09
50617.1  4.590011e-08
50630.6  1.851267e-06
50644.2  3.094217e-06
50657.7  4.355699e-06
50671.2  3.043392e-06
50684.7  5.688750e-07
50698.2  2.685376e-07
50711.7  1.819688e-06
50725.2  2.658969e-06
50738.7  1.015778e-06
50752.3  2.171422e-07
50765.8  2.218509e-08
50779.3  4.633691e-09
50792.8  4.627203e-09
50806.3  4.621417e-09
50819.8  4.615613e-09
50833.3  4.609021e-09
50846.8  4.603170e-09
50860.4  4.596500e-09
50873.9  4.590600e-09
50887.4  4.584680e-09
50900.9  4.577897e-09
50914.4  4.571927e-09
50927.9  4.565937e-09
50941.4  4.559037e-09
50954.9  4.552995e-09
50968.4  4.546932e-09
50982.0  5.668942e-09
50995.5  3.072684e-08
51009.0  0.000000e+00
51022.5  0.000000e+00
