# from B. Hilbert, priv. comm. 
# Dated May 2024 (post-flight)
# Uses modA or modB  filters+DBS+QE+OTE (nrc_plus_ote)
# Units of transmission are PCE (photon to electron conversion efficiency)
# 
43469.1  0.000000e+00
43482.6  0.000000e+00
43496.1  1.947473e-05
43509.7  1.994033e-05
43523.2  2.033637e-05
43536.7  2.064786e-05
43550.2  2.129454e-05
43563.7  2.131299e-05
43577.2  2.156605e-05
43590.7  2.365408e-05
43604.2  2.575424e-05
43617.8  2.633429e-05
43631.3  2.725337e-05
43644.8  2.983627e-05
43658.3  3.309446e-05
43671.8  3.619007e-05
43685.3  3.833719e-05
43698.8  3.969426e-05
43712.3  4.149325e-05
43725.8  4.587480e-05
43739.4  5.120283e-05
43752.9  5.699233e-05
43766.4  6.057744e-05
43779.9  6.383526e-05
43793.4  6.753049e-05
43806.9  7.231860e-05
43820.4  7.693253e-05
43833.9  8.090400e-05
43847.5  8.467072e-05
43861.0  8.900375e-05
43874.5  9.536535e-05
43888.0  1.017081e-04
43901.5  1.073460e-04
43915.0  1.103803e-04
43928.5  1.149011e-04
43942.0  1.213850e-04
43955.6  1.305657e-04
43969.1  1.395324e-04
43982.6  1.493578e-04
43996.1  1.603573e-04
44009.6  1.732759e-04
44023.1  1.844312e-04
44036.6  1.947930e-04
44050.1  2.047257e-04
44063.7  2.165523e-04
44077.2  2.291810e-04
44090.7  2.427184e-04
44104.2  2.573131e-04
44117.7  2.735407e-04
44131.2  2.904029e-04
44144.7  3.081355e-04
44158.2  3.285439e-04
44171.8  3.530057e-04
44185.3  3.800407e-04
44198.8  4.089617e-04
44212.3  4.386563e-04
44225.8  4.695735e-04
44239.3  5.016483e-04
44252.8  5.342386e-04
44266.3  5.696712e-04
44279.9  6.083293e-04
44293.4  6.506713e-04
44306.9  6.960474e-04
44320.4  7.454033e-04
44333.9  7.990071e-04
44347.4  8.573222e-04
44360.9  9.200950e-04
44374.4  9.881502e-04
44388.0  1.062391e-03
44401.5  1.142912e-03
44415.0  1.229256e-03
44428.5  1.322083e-03
44442.0  1.422866e-03
44455.5  1.531611e-03
44469.0  1.649429e-03
44482.5  1.777548e-03
44496.1  1.919685e-03
44509.6  2.074412e-03
44523.1  2.242697e-03
44536.6  2.425996e-03
44550.1  2.628070e-03
44563.6  2.850134e-03
44577.1  3.094859e-03
44590.6  3.363720e-03
44604.1  3.658691e-03
44617.7  3.982795e-03
44631.2  4.342307e-03
44644.7  4.737746e-03
44658.2  5.173218e-03
44671.7  5.655939e-03
44685.2  6.193659e-03
44698.7  6.790538e-03
44712.2  7.455157e-03
44725.8  8.194526e-03
44739.3  9.016254e-03
44752.8  9.931320e-03
44766.3  1.096237e-02
44779.8  1.211383e-02
44793.3  1.340046e-02
44806.8  1.484371e-02
44820.3  1.646651e-02
44833.9  1.828519e-02
44847.4  2.033065e-02
44860.9  2.264747e-02
44874.4  2.525529e-02
44887.9  2.819481e-02
44901.4  3.153046e-02
44914.9  3.529415e-02
44928.4  3.954571e-02
44942.0  4.437533e-02
44955.5  4.983275e-02
44969.0  5.599627e-02
44982.5  6.297122e-02
44996.0  7.083248e-02
45009.5  7.967246e-02
45023.0  8.960344e-02
45036.5  1.006702e-01
45050.1  1.129860e-01
45063.6  1.266412e-01
45077.1  1.414718e-01
45090.6  1.576377e-01
45104.1  1.751602e-01
45117.6  1.935861e-01
45131.1  2.129308e-01
45144.6  2.332051e-01
45158.2  2.537342e-01
45171.7  2.741932e-01
45185.2  2.947962e-01
45198.7  3.148788e-01
45212.2  3.337703e-01
45225.7  3.520863e-01
45239.2  3.694062e-01
45252.7  3.847217e-01
45266.3  3.991001e-01
45279.8  4.124429e-01
45293.3  4.234710e-01
45306.8  4.335091e-01
45320.3  4.425691e-01
45333.8  4.497441e-01
45347.3  4.559407e-01
45360.8  4.613340e-01
45374.4  4.654327e-01
45387.9  4.687755e-01
45401.4  4.715988e-01
45414.9  4.735991e-01
45428.4  4.751289e-01
45441.9  4.764002e-01
45455.4  4.772480e-01
45468.9  4.778136e-01
45482.5  4.782911e-01
45496.0  4.786061e-01
45509.5  4.788216e-01
45523.0  4.790379e-01
45536.5  4.791737e-01
45550.0  4.793926e-01
45563.5  4.795795e-01
45577.0  4.797728e-01
45590.5  4.800291e-01
45604.1  4.802780e-01
45617.6  4.805681e-01
45631.1  4.808951e-01
45644.6  4.811938e-01
45658.1  4.815044e-01
45671.6  4.818920e-01
45685.1  4.822253e-01
45698.6  4.825350e-01
45712.2  4.828561e-01
45725.7  4.831360e-01
45739.2  4.834071e-01
45752.7  4.836166e-01
45766.2  4.837762e-01
45779.7  4.839147e-01
45793.2  4.840381e-01
45806.7  4.840825e-01
45820.3  4.840963e-01
45833.8  4.840428e-01
45847.3  4.839590e-01
45860.8  4.838615e-01
45874.3  4.836528e-01
45887.8  4.834308e-01
45901.3  4.832073e-01
45914.8  4.829167e-01
45928.4  4.825883e-01
45941.9  4.822298e-01
45955.4  4.818686e-01
45968.9  4.814883e-01
45982.4  4.810905e-01
45995.9  4.806477e-01
46009.4  4.802192e-01
46022.9  4.798038e-01
46036.5  4.793754e-01
46050.0  4.789418e-01
46063.5  4.784945e-01
46077.0  4.780953e-01
46090.5  4.776764e-01
46104.0  4.772555e-01
46117.5  4.768397e-01
46131.0  4.764274e-01
46144.6  4.760639e-01
46158.1  4.756937e-01
46171.6  4.753068e-01
46185.1  4.749559e-01
46198.6  4.746365e-01
46212.1  4.742865e-01
46225.6  4.739426e-01
46239.1  4.736166e-01
46252.7  4.732695e-01
46266.2  4.729766e-01
46279.7  4.726605e-01
46293.2  4.723017e-01
46306.7  4.719968e-01
46320.2  4.716513e-01
46333.7  4.713389e-01
46347.2  4.709838e-01
46360.8  4.705935e-01
46374.3  4.702540e-01
46387.8  4.699077e-01
46401.3  4.694839e-01
46414.8  4.690845e-01
46428.3  4.686937e-01
46441.8  4.682341e-01
46455.3  4.678102e-01
46468.8  4.673489e-01
46482.4  4.668336e-01
46495.9  4.663864e-01
46509.4  4.659025e-01
46522.9  4.653354e-01
46536.4  4.647934e-01
46549.9  4.642606e-01
46563.4  4.636562e-01
46576.9  4.630781e-01
46590.5  4.624148e-01
46604.0  4.618090e-01
46617.5  4.612208e-01
46631.0  4.605398e-01
46644.5  4.599057e-01
46658.0  4.592563e-01
46671.5  4.585421e-01
46685.0  4.579045e-01
46698.6  4.572234e-01
46712.1  4.564662e-01
46725.6  4.557813e-01
46739.1  4.551100e-01
46752.6  4.543607e-01
46766.1  4.536453e-01
46779.6  4.529303e-01
46793.1  4.521452e-01
46806.7  4.514316e-01
46820.2  4.506209e-01
46833.7  4.498577e-01
46847.2  4.491007e-01
46860.7  4.482698e-01
46874.2  4.475028e-01
46887.7  4.466915e-01
46901.2  4.458023e-01
46914.8  4.449796e-01
46928.3  4.441253e-01
46941.8  4.431825e-01
46955.3  4.422431e-01
46968.8  4.412918e-01
46982.3  4.402666e-01
46995.8  4.392188e-01
47009.3  4.381228e-01
47022.9  4.368944e-01
47036.4  4.356544e-01
47049.9  4.343587e-01
47063.4  4.328748e-01
47076.9  4.313223e-01
47090.4  4.296365e-01
47103.9  4.278250e-01
47117.4  4.258654e-01
47131.0  4.237040e-01
47144.5  4.212823e-01
47158.0  4.187161e-01
47171.5  4.158516e-01
47185.0  4.126611e-01
47198.5  4.092719e-01
47212.0  4.053654e-01
47225.5  4.011645e-01
47239.1  3.967146e-01
47252.6  3.914674e-01
47266.1  3.859741e-01
47279.6  3.800093e-01
47293.1  3.733446e-01
47306.6  3.664243e-01
47320.1  3.586931e-01
47333.6  3.504859e-01
47347.1  3.420095e-01
47360.7  3.325069e-01
47374.2  3.227913e-01
47387.7  3.125876e-01
47401.2  3.017125e-01
47414.7  2.907597e-01
47428.2  2.791734e-01
47441.7  2.673304e-01
47455.2  2.555034e-01
47468.8  2.431101e-01
47482.3  2.309041e-01
47495.8  2.186619e-01
47509.3  2.063470e-01
47522.8  1.943849e-01
47536.3  1.824153e-01
47549.8  1.708041e-01
47563.3  1.596062e-01
47576.9  1.486041e-01
47590.4  1.381742e-01
47603.9  1.281605e-01
47617.4  1.186137e-01
47630.9  1.096459e-01
47644.4  1.010908e-01
47657.9  9.311718e-02
47671.4  8.566788e-02
47685.0  7.869577e-02
47698.5  7.224799e-02
47712.0  6.625122e-02
47725.5  6.071942e-02
47739.0  5.562703e-02
47752.5  5.092629e-02
47766.0  4.661727e-02
47779.5  4.266391e-02
47793.1  3.904616e-02
47806.6  3.573562e-02
47820.1  3.270853e-02
47833.6  2.994368e-02
47847.1  2.742002e-02
47860.6  2.512323e-02
47874.1  2.302423e-02
47887.6  2.111107e-02
47901.2  1.936568e-02
47914.7  1.777075e-02
47928.2  1.632092e-02
47941.7  1.499598e-02
47955.2  1.378856e-02
47968.7  1.268681e-02
47982.2  1.167912e-02
47995.7  1.076146e-02
48009.3  9.920013e-03
48022.8  9.151716e-03
48036.3  8.448844e-03
48049.8  7.803233e-03
48063.3  7.212501e-03
48076.8  6.668073e-03
48090.3  6.168104e-03
48103.8  5.711781e-03
48117.4  5.292347e-03
48130.9  4.911915e-03
48144.4  4.560751e-03
48157.9  4.237528e-03
48171.4  3.940217e-03
48184.9  3.664602e-03
48198.4  3.410264e-03
48211.9  3.175335e-03
48225.5  2.957997e-03
48239.0  2.759263e-03
48252.5  2.575387e-03
48266.0  2.405390e-03
48279.5  2.247333e-03
48293.0  2.100589e-03
48306.5  1.966565e-03
48320.0  1.842348e-03
48333.5  1.727481e-03
48347.1  1.619567e-03
48360.6  1.518278e-03
48374.1  1.424672e-03
48387.6  1.337535e-03
48401.1  1.257758e-03
48414.6  1.183192e-03
48428.1  1.113627e-03
48441.6  1.049256e-03
48455.2  9.888786e-04
48468.7  9.324966e-04
48482.2  8.797918e-04
48495.7  8.304564e-04
48509.2  7.843858e-04
48522.7  7.410264e-04
48536.2  6.992094e-04
48549.7  6.601729e-04
48563.3  6.239557e-04
48576.8  5.904717e-04
48590.3  5.591171e-04
48603.8  5.273793e-04
48617.3  4.978742e-04
48630.8  4.707690e-04
48644.3  4.477552e-04
48657.8  4.272120e-04
48671.4  4.069976e-04
48684.9  3.873261e-04
48698.4  3.676464e-04
48711.9  3.498062e-04
48725.4  3.334104e-04
48738.9  3.179898e-04
48752.4  3.034131e-04
48765.9  2.897812e-04
48779.5  2.770743e-04
48793.0  2.651611e-04
48806.5  2.527426e-04
48820.0  2.407679e-04
48833.5  2.299235e-04
48847.0  2.204265e-04
48860.5  2.124026e-04
48874.0  2.038061e-04
48887.6  1.951764e-04
48901.1  1.854401e-04
48914.6  1.765134e-04
48928.1  1.686721e-04
48941.6  1.616720e-04
48955.1  1.554147e-04
48968.6  1.492759e-04
48982.1  1.431880e-04
48995.7  1.366190e-04
49009.2  1.302604e-04
49022.7  1.241379e-04
49036.2  1.187599e-04
49049.7  1.138047e-04
49063.2  1.078549e-04
49076.7  1.019725e-04
49090.2  9.574480e-05
49103.8  9.084956e-05
49117.3  8.684009e-05
49130.8  8.424698e-05
49144.3  8.208594e-05
49157.8  8.041073e-05
49171.3  7.868962e-05
49184.8  7.688336e-05
49198.3  7.467842e-05
49211.8  7.235755e-05
49225.4  7.131415e-05
49238.9  7.064660e-05
49252.4  7.092231e-05
49265.9  7.055802e-05
49279.4  6.948022e-05
49292.9  6.766290e-05
49306.4  6.570414e-05
49319.9  6.359364e-05
49333.5  6.125320e-05
49347.0  5.833443e-05
49360.5  5.553282e-05
49374.0  5.282867e-05
49387.5  5.046566e-05
49401.0  4.823325e-05
49414.5  4.599166e-05
49428.0  4.422554e-05
49441.6  4.308727e-05
49455.1  4.225943e-05
49468.6  4.164010e-05
49482.1  4.066856e-05
49495.6  3.968895e-05
49509.1  3.882256e-05
49522.6  3.796684e-05
49536.1  3.709572e-05
49549.7  3.660110e-05
49563.2  3.638822e-05
49576.7  3.636225e-05
49590.2  3.619884e-05
49603.7  3.380936e-05
49617.2  3.096618e-05
49630.7  2.802729e-05
49644.2  2.662924e-05
49657.8  2.617339e-05
49671.3  2.529058e-05
49684.8  2.444816e-05
49698.3  2.366532e-05
49711.8  2.344605e-05
49725.3  2.446703e-05
49738.8  2.491968e-05
49752.3  2.475548e-05
49765.9  2.329308e-05
49779.4  2.167747e-05
49792.9  2.014115e-05
49806.4  1.898280e-05
49819.9  1.752373e-05
49833.4  1.654222e-05
49846.9  1.623812e-05
49860.4  1.705423e-05
49874.0  1.834027e-05
49887.5  1.853868e-05
49901.0  1.903227e-05
49914.5  1.951244e-05
49928.0  2.049777e-05
49941.5  2.195733e-05
49955.0  2.233750e-05
49968.5  2.167784e-05
49982.1  1.972743e-05
49995.6  1.810029e-05
50009.1  1.611113e-05
50022.6  1.609814e-05
50036.1  1.602825e-05
50049.6  1.607509e-05
50063.1  1.626060e-05
50076.6  1.673146e-05
50090.1  1.745943e-05
50103.7  1.755067e-05
50117.2  1.766260e-05
50130.7  1.738493e-05
50144.2  1.757166e-05
50157.7  1.818108e-05
50171.2  1.893485e-05
50184.7  1.970416e-05
50198.2  2.037002e-05
50211.8  2.103047e-05
50225.3  2.054749e-05
50238.8  1.952398e-05
50252.3  1.748658e-05
50265.8  1.710534e-05
50279.3  1.654063e-05
50292.8  1.619982e-05
50306.3  1.545080e-05
50319.9  1.433576e-05
50333.4  1.482188e-05
50346.9  1.550232e-05
50360.4  1.608546e-05
50373.9  1.588783e-05
50387.4  1.586939e-05
50400.9  1.618881e-05
50414.4  1.657039e-05
50428.0  1.704000e-05
50441.5  1.686677e-05
50455.0  1.629439e-05
50468.5  1.561342e-05
50482.0  1.497227e-05
50495.5  1.445990e-05
50509.0  1.415759e-05
50522.5  1.407089e-05
50536.1  1.402991e-05
50549.6  1.391268e-05
50563.1  1.340929e-05
50576.6  1.247670e-05
50590.1  1.177590e-05
50603.6  1.120416e-05
50617.1  1.103477e-05
50630.6  1.179687e-05
50644.2  1.206784e-05
50657.7  1.248159e-05
50671.2  1.170900e-05
50684.7  1.041323e-05
50698.2  1.025755e-05
50711.7  1.101616e-05
50725.2  1.140194e-05
50738.7  1.065156e-05
50752.3  1.036773e-05
50765.8  9.880356e-06
50779.3  9.427589e-06
50792.8  8.510285e-06
50806.3  7.830743e-06
50819.8  7.611930e-06
50833.3  7.452734e-06
50846.8  7.405215e-06
50860.4  7.298834e-06
50873.9  7.116123e-06
50887.4  7.233620e-06
50900.9  7.534161e-06
50914.4  7.950238e-06
50927.9  8.449559e-06
50941.4  8.815269e-06
50954.9  9.199207e-06
50968.4  9.527663e-06
50982.0  9.747434e-06
50995.5  9.550034e-06
51009.0  0.000000e+00
51022.5  0.000000e+00
