# from B. Hilbert, priv. comm. 
# Dated May 2024 (post-flight)
# Uses modA or modB  filters+DBS+QE+OTE (nrc_plus_ote)
# Units of transmission are PCE (photon to electron conversion efficiency)
# 
7475.5  0.000000e+00
7485.5  0.000000e+00
7495.5  4.510510e-07
7505.5  4.240628e-07
7515.5  4.496867e-07
7525.5  4.415369e-07
7535.5  5.182695e-07
7545.5  4.121728e-07
7555.5  5.116415e-07
7565.5  4.640182e-07
7575.5  5.262081e-07
7585.5  5.730899e-07
7595.5  5.049914e-07
7605.5  5.212131e-07
7615.5  5.352307e-07
7625.5  6.497286e-07
7635.5  5.911531e-07
7645.5  5.740658e-07
7655.5  6.240533e-07
7665.5  6.702802e-07
7675.5  6.713268e-07
7685.5  6.328175e-07
7695.5  7.576448e-07
7705.5  7.481417e-07
7715.5  7.977642e-07
7725.5  7.414212e-07
7735.5  7.856379e-07
7745.5  8.218572e-07
7755.5  9.029509e-07
7765.5  9.950935e-07
7775.5  9.978170e-07
7785.5  1.217174e-06
7795.5  1.484874e-06
7805.5  2.300876e-06
7815.5  3.835431e-06
7825.5  7.469645e-06
7835.5  1.671639e-05
7845.5  3.860142e-05
7855.5  9.073110e-05
7865.5  2.194352e-04
7875.5  5.692579e-04
7885.5  1.539831e-03
7895.5  4.154070e-03
7905.5  1.058618e-02
7915.5  2.378477e-02
7925.5  4.588292e-02
7935.5  7.678051e-02
7945.5  1.133196e-01
7955.5  1.507974e-01
7965.5  1.855697e-01
7975.5  2.155698e-01
7985.5  2.391955e-01
7995.5  2.556925e-01
8005.5  2.674192e-01
8015.5  2.745615e-01
8025.5  2.795710e-01
8035.5  2.838175e-01
8045.5  2.890939e-01
8055.5  2.920931e-01
8065.5  2.923204e-01
8075.5  2.878502e-01
8085.5  2.806631e-01
8095.5  2.734044e-01
8105.5  2.700608e-01
8115.5  2.700089e-01
8125.5  2.718952e-01
8135.5  2.725556e-01
8145.5  2.723385e-01
8155.5  2.691308e-01
8165.5  2.661489e-01
8175.5  2.674160e-01
8185.5  2.741914e-01
8195.5  2.825096e-01
8205.5  2.941299e-01
8215.5  3.022231e-01
8225.5  3.083596e-01
8235.5  3.107907e-01
8245.5  3.110601e-01
8255.5  3.073367e-01
8265.5  3.025900e-01
8275.5  3.004779e-01
8285.5  3.002407e-01
8295.5  3.019891e-01
8305.5  3.045902e-01
8315.5  3.049911e-01
8325.5  3.035078e-01
8335.5  3.001263e-01
8345.5  2.960327e-01
8355.5  2.930711e-01
8365.5  2.920513e-01
8375.5  2.928574e-01
8385.5  2.951831e-01
8395.5  2.977262e-01
8405.5  3.002358e-01
8415.5  3.016300e-01
8425.5  3.047543e-01
8435.5  3.081407e-01
8445.5  3.114579e-01
8455.5  3.143970e-01
8465.5  3.162699e-01
8475.5  3.162382e-01
8485.5  3.170482e-01
8495.5  3.190685e-01
8505.5  3.201903e-01
8515.5  3.222446e-01
8525.5  3.206436e-01
8535.5  3.190974e-01
8545.5  3.165429e-01
8555.5  3.136931e-01
8565.5  3.114431e-01
8575.5  3.094297e-01
8585.5  3.087003e-01
8595.5  3.058512e-01
8605.5  3.042317e-01
8615.5  3.025294e-01
8625.5  2.998025e-01
8635.5  3.002191e-01
8645.5  3.035542e-01
8655.5  3.047812e-01
8665.5  3.097210e-01
8675.5  3.157310e-01
8685.5  3.194630e-01
8695.5  3.230127e-01
8705.5  3.282977e-01
8715.5  3.301216e-01
8725.5  3.330317e-01
8735.5  3.338281e-01
8745.5  3.331543e-01
8755.5  3.292452e-01
8765.5  3.272561e-01
8775.5  3.263998e-01
8785.5  3.227665e-01
8795.5  3.166200e-01
8805.5  3.170951e-01
8815.5  3.150196e-01
8825.5  3.116402e-01
8835.5  3.123584e-01
8845.5  3.083143e-01
8855.5  3.007094e-01
8865.5  2.969443e-01
8875.5  2.968332e-01
8885.5  3.063797e-01
8895.5  3.046221e-01
8905.5  3.140938e-01
8915.5  3.244607e-01
8925.5  3.312015e-01
8935.5  3.339719e-01
8945.5  3.359517e-01
8955.5  3.394438e-01
8965.5  3.424183e-01
8975.5  3.355003e-01
8985.5  3.323437e-01
8995.5  3.313149e-01
9005.5  3.274390e-01
9015.5  3.230914e-01
9025.5  3.194269e-01
9035.5  3.149183e-01
9045.5  3.109047e-01
9055.5  3.087731e-01
9065.5  3.057722e-01
9075.5  3.038660e-01
9085.5  3.043805e-01
9095.5  3.057304e-01
9105.5  3.103834e-01
9115.5  3.134452e-01
9125.5  3.178415e-01
9135.5  3.254963e-01
9145.5  3.288635e-01
9155.5  3.358164e-01
9165.5  3.430155e-01
9175.5  3.472161e-01
9185.5  3.510435e-01
9195.5  3.526784e-01
9205.5  3.530896e-01
9215.5  3.551356e-01
9225.5  3.534515e-01
9235.5  3.516860e-01
9245.5  3.470341e-01
9255.5  3.443356e-01
9265.5  3.415876e-01
9275.5  3.381016e-01
9285.5  3.341466e-01
9295.5  3.330481e-01
9305.5  3.308902e-01
9315.5  3.302656e-01
9325.5  3.294875e-01
9335.5  3.287070e-01
9345.5  3.280082e-01
9355.5  3.275327e-01
9365.5  3.267837e-01
9375.5  3.278707e-01
9385.5  3.281059e-01
9395.5  3.298447e-01
9405.5  3.340687e-01
9415.5  3.373427e-01
9425.5  3.420392e-01
9435.5  3.454440e-01
9445.5  3.506514e-01
9455.5  3.527131e-01
9465.5  3.554952e-01
9475.5  3.541785e-01
9485.5  3.517110e-01
9495.5  3.499472e-01
9505.5  3.475981e-01
9515.5  3.451881e-01
9525.5  3.411875e-01
9535.5  3.395653e-01
9545.5  3.359664e-01
9555.5  3.346616e-01
9565.5  3.327485e-01
9575.5  3.310778e-01
9585.5  3.305713e-01
9595.5  3.330824e-01
9605.5  3.344073e-01
9615.5  3.368466e-01
9625.5  3.411654e-01
9635.5  3.457794e-01
9645.5  3.501523e-01
9655.5  3.543242e-01
9665.5  3.579486e-01
9675.5  3.596742e-01
9685.5  3.617389e-01
9695.5  3.642109e-01
9705.5  3.617693e-01
9715.5  3.610794e-01
9725.5  3.598549e-01
9735.5  3.582369e-01
9745.5  3.559661e-01
9755.5  3.550740e-01
9765.5  3.518516e-01
9775.5  3.492859e-01
9785.5  3.446664e-01
9795.5  3.422274e-01
9805.5  3.387040e-01
9815.5  3.377574e-01
9825.5  3.392501e-01
9835.5  3.421302e-01
9845.5  3.462770e-01
9855.5  3.523246e-01
9865.5  3.567334e-01
9875.5  3.613776e-01
9885.5  3.626178e-01
9895.5  3.647824e-01
9905.5  3.638447e-01
9915.5  3.635985e-01
9925.5  3.624956e-01
9935.5  3.604199e-01
9945.5  3.572724e-01
9955.5  3.592384e-01
9965.5  3.578867e-01
9975.5  3.589017e-01
9985.5  3.595985e-01
9995.5  3.593800e-01
10005.5  3.556353e-01
10015.5  3.401075e-01
10025.5  3.113232e-01
10035.5  2.682164e-01
10045.5  2.150959e-01
10055.5  1.707922e-01
10065.5  1.385715e-01
10075.5  1.112253e-01
10085.5  9.035906e-02
10095.5  7.254169e-02
10105.5  6.211566e-02
10115.5  5.013255e-02
10125.5  4.482385e-02
10135.5  3.792077e-02
10145.5  3.319898e-02
10155.5  2.789679e-02
10165.5  2.562235e-02
10175.5  2.201246e-02
10185.5  1.932419e-02
10195.5  1.611325e-02
10205.5  1.256145e-02
10215.5  9.376278e-03
10225.5  6.948586e-03
10235.5  4.901428e-03
10245.5  3.408428e-03
10255.5  2.359417e-03
10265.5  1.641788e-03
10275.5  1.135332e-03
10285.5  8.088193e-04
10295.5  5.801455e-04
10305.5  4.169766e-04
10315.5  3.077936e-04
10325.5  2.291273e-04
10335.5  1.712451e-04
10345.5  1.301444e-04
10355.5  9.982831e-05
10365.5  7.751452e-05
10375.5  6.063541e-05
10385.5  4.804303e-05
10395.5  4.001283e-05
10405.5  3.235739e-05
10415.5  2.641510e-05
10425.5  2.170975e-05
10435.5  1.857081e-05
10445.5  1.597681e-05
10455.5  1.392816e-05
10465.5  1.239115e-05
10475.5  1.149196e-05
10485.5  9.923401e-06
10495.5  8.817376e-06
10505.5  8.428468e-06
10515.5  7.805964e-06
10525.5  7.318701e-06
10535.5  6.774161e-06
10545.5  6.158922e-06
10555.5  5.957748e-06
10565.5  6.022335e-06
10575.5  5.661631e-06
10585.5  5.690695e-06
10595.5  5.413600e-06
10605.5  5.225781e-06
10615.5  4.720625e-06
10625.5  5.625685e-06
10635.5  4.569732e-06
10645.5  4.795898e-06
10655.5  4.144514e-06
10665.5  5.156598e-06
10675.5  4.905808e-06
10685.5  4.181526e-06
10695.5  3.873973e-06
10705.5  4.534975e-06
10715.5  0.000000e+00
10725.5  0.000000e+00
