# Units : 
#   wavelength in Angstroms 
#   transmission in %
# Bandpass Name : Y
# Instrument : VISTA/VIRCAM
# Determined by : Unknown
# References : 
#   https://www.eso.org/sci/facilities/paranal/decommissioned/vircam/inst.html
#   https://astro.pas.rochester.edu/IR-camera/papers/CMcMurtry-SPIEv5902-2005-VIRGO.pdf
# Notes :
#   Includes filter transmission ONLY.
#   This file is a copy of 'VISTA_Filters_at80K_forETC_Y.dat' from ESO's 
#   'Filters_QE_Atm_curves.tar' with wavelength converted to Angstroms.
#   Prior to April 2025, this was 'vista_vircam_Y.par' in sedpy.
#
# wavelength transmission
5000.0000 0.0006
5010.0000 0.0000
5020.0000 0.0012
5030.0000 0.0000
5040.0000 0.0017
5050.0000 0.0000
5060.0000 0.0014
5070.0000 0.0000
5080.0000 0.0006
5090.0000 -0.0010
5100.0000 0.0000
5110.0000 0.0000
5120.0000 0.0002
5130.0000 0.0000
5140.0000 -0.0010
5150.0000 0.0005
5160.0000 -0.0010
5170.0000 0.0000
5180.0000 -0.0020
5190.0000 0.0011
5200.0000 -0.0010
5210.0000 0.0009
5220.0000 -0.0010
5230.0000 0.0009
5240.0000 -0.0010
5250.0000 0.0020
5260.0000 0.0000
5270.0000 0.0006
5280.0000 0.0000
5290.0000 0.0002
5300.0000 -0.0010
5310.0000 -0.0010
5320.0000 0.0005
5330.0000 0.0000
5340.0000 0.0015
5350.0000 -0.0020
5360.0000 0.0013
5370.0000 -0.0020
5380.0000 0.0015
5390.0000 -0.0020
5400.0000 0.0019
5410.0000 -0.0020
5420.0000 0.0016
5430.0000 -0.0020
5440.0000 0.0012
5450.0000 -0.0020
5460.0000 0.0018
5470.0000 0.0000
5480.0000 0.0011
5490.0000 0.0016
5500.0000 0.0004
5510.0000 0.0025
5520.0000 0.0000
5530.0000 0.0022
5540.0000 -0.0020
5550.0000 0.0011
5560.0000 -0.0040
5570.0000 0.0014
5580.0000 -0.0040
5590.0000 0.0013
5600.0000 -0.0010
5610.0000 0.0044
5620.0000 0.0007
5630.0000 0.0011
5640.0000 0.0004
5650.0000 0.0025
5660.0000 -0.0010
5670.0000 0.0009
5680.0000 -0.0010
5690.0000 0.0011
5700.0000 -0.0040
5710.0000 0.0019
5720.0000 -0.0020
5730.0000 0.0022
5740.0000 -0.0020
5750.0000 0.0009
5760.0000 -0.0020
5770.0000 0.0000
5780.0000 0.0000
5790.0000 0.0007
5800.0000 0.0014
5810.0000 0.0009
5820.0000 0.0025
5830.0000 0.0001
5840.0000 0.0011
5850.0000 -0.0010
5860.0000 0.0013
5870.0000 -0.0010
5880.0000 0.0012
5890.0000 -0.0020
5900.0000 0.0013
5910.0000 -0.0010
5920.0000 0.0013
5930.0000 -0.0010
5940.0000 0.0009
5950.0000 -0.0010
5960.0000 0.0006
5970.0000 0.0000
5980.0000 0.0007
5990.0000 0.0002
6000.0000 0.0000
6010.0000 0.0005
6020.0000 0.0007
6030.0000 0.0016
6040.0000 0.0000
6050.0000 0.0010
6060.0000 0.0000
6070.0000 0.0006
6080.0000 0.0000
6090.0000 0.0008
6100.0000 -0.0010
6110.0000 0.0000
6120.0000 0.0000
6130.0000 0.0004
6140.0000 0.0000
6150.0000 0.0003
6160.0000 0.0000
6170.0000 0.0005
6180.0000 0.0000
6190.0000 0.0000
6200.0000 0.0010
6210.0000 0.0000
6220.0000 0.0000
6230.0000 0.0000
6240.0000 0.0000
6250.0000 -0.0010
6260.0000 0.0008
6270.0000 -0.0010
6280.0000 0.0000
6290.0000 -0.0020
6300.0000 0.0000
6310.0000 0.0000
6320.0000 0.0000
6330.0000 0.0000
6340.0000 0.0000
6350.0000 0.0000
6360.0000 -0.0010
6370.0000 0.0000
6380.0000 0.0004
6390.0000 0.0005
6400.0000 0.0000
6410.0000 0.0001
6420.0000 0.0000
6430.0000 0.0004
6440.0000 0.0000
6450.0000 0.0000
6460.0000 0.0000
6470.0000 0.0000
6480.0000 0.0000
6490.0000 0.0000
6500.0000 0.0000
6510.0000 0.0003
6520.0000 0.0000
6530.0000 0.0000
6540.0000 0.0000
6550.0000 0.0015
6560.0000 0.0028
6570.0000 0.0014
6580.0000 0.0011
6590.0000 0.0011
6600.0000 0.0000
6610.0000 0.0000
6620.0000 0.0008
6630.0000 0.0015
6640.0000 0.0018
6650.0000 0.0031
6660.0000 0.0020
6670.0000 0.0016
6680.0000 0.0022
6690.0000 0.0027
6700.0000 0.0037
6710.0000 0.0038
6720.0000 0.0032
6730.0000 0.0043
6740.0000 0.0055
6750.0000 0.0065
6760.0000 0.0079
6770.0000 0.0083
6780.0000 0.0088
6790.0000 0.0091
6800.0000 0.0101
6810.0000 0.0101
6820.0000 0.0098
6830.0000 0.0098
6840.0000 0.0121
6850.0000 0.0125
6860.0000 0.0126
6870.0000 0.0135
6880.0000 0.0169
6890.0000 0.0183
6900.0000 0.0154
6910.0000 0.0162
6920.0000 0.0162
6930.0000 0.0165
6940.0000 0.0178
6950.0000 0.0180
6960.0000 0.0179
6970.0000 0.0181
6980.0000 0.0184
6990.0000 0.0182
7000.0000 0.0175
7010.0000 0.0163
7020.0000 0.0159
7030.0000 0.0135
7040.0000 0.0126
7050.0000 0.0103
7060.0000 0.0105
7070.0000 0.0081
7080.0000 0.0066
7090.0000 0.0040
7100.0000 0.0045
7110.0000 0.0026
7120.0000 0.0029
7130.0000 0.0023
7140.0000 0.0026
7150.0000 0.0003
7160.0000 0.0000
7170.0000 0.0009
7180.0000 0.0000
7190.0000 0.0000
7200.0000 0.0000
7210.0000 0.0006
7220.0000 0.0000
7230.0000 0.0008
7240.0000 0.0000
7250.0000 0.0010
7260.0000 -0.0010
7270.0000 0.0022
7280.0000 0.0003
7290.0000 0.0016
7300.0000 0.0000
7310.0000 0.0016
7320.0000 0.0000
7330.0000 0.0000
7340.0000 0.0000
7350.0000 0.0000
7360.0000 -0.0010
7370.0000 -0.0020
7380.0000 0.0000
7390.0000 -0.0010
7400.0000 0.0012
7410.0000 -0.0020
7420.0000 0.0008
7430.0000 0.0000
7440.0000 0.0030
7450.0000 -0.0020
7460.0000 0.0022
7470.0000 0.0000
7480.0000 0.0036
7490.0000 0.0014
7500.0000 0.0036
7510.0000 0.0019
7520.0000 0.0018
7530.0000 0.0000
7540.0000 0.0000
7550.0000 -0.0010
7560.0000 -0.0040
7570.0000 -0.0010
7580.0000 -0.0040
7590.0000 0.0012
7600.0000 -0.0010
7610.0000 0.0014
7620.0000 -0.0010
7630.0000 0.0024
7640.0000 -0.0010
7650.0000 0.0042
7660.0000 0.0000
7670.0000 0.0036
7680.0000 0.0008
7690.0000 0.0037
7700.0000 0.0000
7710.0000 0.0005
7720.0000 -0.0010
7730.0000 -0.0020
7740.0000 -0.0010
7750.0000 -0.0020
7760.0000 -0.0010
7770.0000 -0.0030
7780.0000 0.0024
7790.0000 -0.0030
7800.0000 0.0000
7810.0000 -0.0040
7820.0000 0.0015
7830.0000 -0.0020
7840.0000 0.0026
7850.0000 0.0000
7860.0000 0.0045
7870.0000 -0.0020
7880.0000 0.0025
7890.0000 0.0006
7900.0000 -0.0010
7910.0000 0.0000
7920.0000 0.0000
7930.0000 0.0007
7940.0000 -0.0040
7950.0000 0.0003
7960.0000 -0.0020
7970.0000 0.0009
7980.0000 -0.0050
7990.0000 0.0012
8000.0000 -0.0040
8010.0000 0.0037
8020.0000 -0.0020
8030.0000 0.0051
8040.0000 0.0004
8050.0000 0.0099
8060.0000 0.0099
8070.0000 0.0205
8080.0000 0.0234
8090.0000 0.0332
8100.0000 -0.0030
8110.0000 0.0015
8120.0000 -0.0050
8130.0000 0.0005
8140.0000 -0.0010
8150.0000 0.0041
8160.0000 -0.0010
8170.0000 0.0057
8180.0000 -0.0030
8190.0000 0.0000
8200.0000 -0.0020
8210.0000 -0.0010
8220.0000 -0.0010
8230.0000 -0.0020
8240.0000 -0.0010
8250.0000 -0.0040
8260.0000 0.0000
8270.0000 -0.0050
8280.0000 -0.0010
8290.0000 -0.0050
8300.0000 0.0000
8310.0000 -0.0050
8320.0000 -0.0010
8330.0000 -0.0050
8340.0000 -0.0010
8350.0000 -0.0030
8360.0000 0.0012
8370.0000 -0.0040
8380.0000 -0.0060
8390.0000 -0.0060
8400.0000 -0.0050
8410.0000 -0.0080
8420.0000 -0.0090
8430.0000 -0.0080
8440.0000 -0.0100
8450.0000 -0.0080
8460.0000 -0.0110
8470.0000 -0.0100
8480.0000 -0.0110
8490.0000 -0.0100
8500.0000 -0.0110
8510.0000 -0.0080
8520.0000 -0.0100
8530.0000 -0.0060
8540.0000 -0.0080
8550.0000 0.0021
8560.0000 0.0295
8570.0000 0.0574
8580.0000 0.1178
8590.0000 0.1735
8600.0000 0.1868
8610.0000 0.0061
8620.0000 0.0087
8630.0000 0.0095
8640.0000 0.0070
8650.0000 0.0025
8660.0000 0.0057
8670.0000 0.0078
8680.0000 0.0097
8690.0000 0.0089
8700.0000 0.0068
8710.0000 0.0034
8720.0000 0.0091
8730.0000 0.0099
8740.0000 0.0115
8750.0000 0.0109
8760.0000 0.0101
8770.0000 0.0080
8780.0000 0.0101
8790.0000 0.0110
8800.0000 0.0130
8810.0000 0.0127
8820.0000 0.0124
8830.0000 0.0112
8840.0000 0.0129
8850.0000 0.0144
8860.0000 0.0159
8870.0000 0.0153
8880.0000 0.0154
8890.0000 0.0139
8900.0000 0.0160
8910.0000 0.0173
8920.0000 0.0199
8930.0000 0.0207
8940.0000 0.0211
8950.0000 0.0207
8960.0000 0.0232
8970.0000 0.0250
8980.0000 0.0277
8990.0000 0.0283
9000.0000 -0.0790
9010.0000 -0.1050
9020.0000 0.0724
9030.0000 -0.0590
9040.0000 0.0920
9050.0000 0.3206
9060.0000 0.1804
9070.0000 0.1137
9080.0000 0.0395
9090.0000 0.1228
9100.0000 0.0842
9110.0000 0.0633
9120.0000 -0.0470
9130.0000 0.1092
9140.0000 -0.0860
9150.0000 0.0560
9160.0000 0.0414
9170.0000 0.0382
9180.0000 0.0963
9190.0000 -0.0250
9200.0000 0.3623
9210.0000 0.1825
9220.0000 0.1632
9230.0000 0.2501
9240.0000 0.2135
9250.0000 0.0092
9260.0000 0.1731
9270.0000 0.1331
9280.0000 0.1119
9290.0000 0.2347
9300.0000 0.2543
9310.0000 0.1534
9320.0000 0.3433
9330.0000 0.1793
9340.0000 0.5040
9350.0000 0.5454
9360.0000 0.5220
9370.0000 0.4429
9380.0000 0.6579
9390.0000 0.4046
9400.0000 0.5956
9410.0000 0.6114
9420.0000 0.7778
9430.0000 0.8501
9440.0000 0.9479
9450.0000 1.0633
9460.0000 1.3903
9470.0000 1.2411
9480.0000 1.4822
9490.0000 1.4993
9500.0000 1.6990
9510.0000 1.8068
9520.0000 2.4542
9530.0000 2.3940
9540.0000 2.6514
9550.0000 3.0159
9560.0000 3.3365
9570.0000 3.7910
9580.0000 4.6160
9590.0000 5.1830
9600.0000 5.9065
9610.0000 6.7982
9620.0000 7.6655
9630.0000 9.0057
9640.0000 10.4150
9650.0000 11.9920
9660.0000 13.9030
9670.0000 16.1070
9680.0000 18.7350
9690.0000 21.9510
9700.0000 25.3480
9710.0000 28.9190
9720.0000 33.0560
9730.0000 37.4740
9740.0000 41.8400
9750.0000 46.6180
9760.0000 51.2090
9770.0000 55.5290
9780.0000 59.3930
9790.0000 62.6690
9800.0000 65.5180
9810.0000 68.1310
9820.0000 69.9280
9830.0000 71.3300
9840.0000 72.0090
9850.0000 72.3780
9860.0000 72.5530
9870.0000 72.4460
9880.0000 72.1970
9890.0000 72.1110
9900.0000 71.9240
9910.0000 71.7860
9920.0000 71.8450
9930.0000 71.9760
9940.0000 72.1530
9950.0000 72.3040
9960.0000 72.5450
9970.0000 73.0260
9980.0000 73.4510
9990.0000 73.7760
10000.0000 74.2040
10010.0000 74.9110
10020.0000 75.5350
10030.0000 76.1520
10040.0000 76.7540
10050.0000 77.3800
10060.0000 78.1340
10070.0000 78.6240
10080.0000 79.0860
10090.0000 79.4840
10100.0000 79.7640
10110.0000 80.0300
10120.0000 80.1670
10130.0000 80.2830
10140.0000 80.3410
10150.0000 80.3940
10160.0000 80.5430
10170.0000 80.6370
10180.0000 80.6070
10190.0000 80.3410
10200.0000 80.1990
10210.0000 79.9440
10220.0000 79.6650
10230.0000 79.2700
10240.0000 78.9510
10250.0000 78.5530
10260.0000 78.0940
10270.0000 77.6870
10280.0000 77.3350
10290.0000 76.9300
10300.0000 76.7620
10310.0000 76.5920
10320.0000 76.3670
10330.0000 76.1920
10340.0000 75.9670
10350.0000 75.8180
10360.0000 75.8260
10370.0000 75.8590
10380.0000 75.9410
10390.0000 76.0780
10400.0000 76.5590
10410.0000 77.0510
10420.0000 77.5700
10430.0000 78.2000
10440.0000 78.9050
10450.0000 79.7330
10460.0000 80.5620
10470.0000 81.3030
10480.0000 81.9840
10490.0000 82.4160
10500.0000 82.7040
10510.0000 82.8850
10520.0000 82.5210
10530.0000 81.7410
10540.0000 80.8860
10550.0000 79.4050
10560.0000 77.3110
10570.0000 75.1000
10580.0000 72.5990
10590.0000 69.4230
10600.0000 66.0410
10610.0000 62.5220
10620.0000 58.6070
10630.0000 54.8370
10640.0000 51.1250
10650.0000 47.3870
10660.0000 43.5750
10670.0000 39.9100
10680.0000 36.8140
10690.0000 33.5820
10700.0000 30.2570
10710.0000 27.3680
10720.0000 24.5690
10730.0000 22.0960
10740.0000 19.8080
10750.0000 17.5460
10760.0000 15.4520
10770.0000 13.4310
10780.0000 11.7500
10790.0000 10.2490
10800.0000 8.7835
10810.0000 7.5915
10820.0000 6.5734
10830.0000 5.5799
10840.0000 4.7431
10850.0000 4.1356
10860.0000 3.5681
10870.0000 3.0274
10880.0000 2.6218
10890.0000 2.2439
10900.0000 1.9733
10910.0000 1.7299
10920.0000 1.4714
10930.0000 1.3612
10940.0000 1.2701
10950.0000 1.0582
10960.0000 0.8740
10970.0000 0.8494
10980.0000 0.8181
10990.0000 0.8035
11000.0000 0.6829
11010.0000 0.4136
11020.0000 0.3744
11030.0000 0.4550
11040.0000 0.3854
11050.0000 0.3858
11060.0000 0.4517
11070.0000 0.3222
11080.0000 0.1910
11090.0000 0.2518
11100.0000 0.3342
11110.0000 0.1862
11120.0000 0.4111
11130.0000 0.4267
11140.0000 0.4322
11150.0000 0.5058
11160.0000 0.4206
11170.0000 0.3296
11180.0000 0.2322
11190.0000 0.2869
11200.0000 0.2853
11210.0000 0.2182
11220.0000 0.1400
11230.0000 0.0665
11240.0000 0.1520
11250.0000 0.1341
11260.0000 0.0511
11270.0000 0.2197
11280.0000 0.2795
11290.0000 0.2119
11300.0000 0.0190
11310.0000 0.0378
11320.0000 0.0874
11330.0000 0.1951
11340.0000 0.0615
11350.0000 0.0653
11360.0000 0.1062
11370.0000 0.0987
11380.0000 0.1793
11390.0000 0.1742
11400.0000 0.0168
11410.0000 -0.0140
11420.0000 0.0457
11430.0000 0.0627
11440.0000 0.0009
11450.0000 -0.0930
11460.0000 0.0048
11470.0000 0.0879
11480.0000 0.0169
11490.0000 0.1020
11500.0000 0.1495
11510.0000 -0.0080
11520.0000 -0.0120
11530.0000 -0.0860
11540.0000 0.1616
11550.0000 0.1169
11560.0000 0.0202
11570.0000 0.0161
11580.0000 -0.0680
11590.0000 -0.1980
11600.0000 -0.1570
11610.0000 0.0032
11620.0000 -0.0180
11630.0000 -0.1240
11640.0000 0.0161
11650.0000 0.1447
11660.0000 0.2613
11670.0000 0.1362
11680.0000 -0.0180
11690.0000 0.0073
11700.0000 -0.0680
11710.0000 0.0833
11720.0000 0.0926
11730.0000 0.2419
11740.0000 -0.0060
11750.0000 -0.0900
11760.0000 -0.0530
11770.0000 0.1510
11780.0000 0.1922
11790.0000 0.1288
11800.0000 0.0721
11810.0000 0.0987
11820.0000 0.0923
11830.0000 0.1783
11840.0000 0.0054
11850.0000 -0.1270
11860.0000 -0.1130
11870.0000 -0.0570
11880.0000 -0.0430
11890.0000 -0.0290
11900.0000 -0.2060
11910.0000 -0.2280
11920.0000 -0.1210
11930.0000 0.0164
11940.0000 0.1343
11950.0000 0.0057
11960.0000 0.0525
11970.0000 -0.0200
11980.0000 0.0487
11990.0000 -0.0210
12000.0000 0.0482
12010.0000 0.0002
12020.0000 0.0000
12030.0000 0.0000
12040.0000 0.0002
12050.0000 0.0003
12060.0000 0.0004
12070.0000 0.0000
12080.0000 0.0000
12090.0000 0.0001
12100.0000 0.0000
12110.0000 0.0002
12120.0000 0.0004
12130.0000 0.0000
12140.0000 0.0000
12150.0000 0.0001
12160.0000 0.0000
12170.0000 0.0003
12180.0000 0.0003
12190.0000 0.0000
12200.0000 0.0000
12210.0000 0.0001
12220.0000 0.0001
12230.0000 0.0004
12240.0000 0.0003
12250.0000 0.0000
12260.0000 0.0000
12270.0000 0.0002
12280.0000 0.0000
12290.0000 0.0004
12300.0000 0.0003
12310.0000 0.0000
12320.0000 0.0000
12330.0000 0.0002
12340.0000 0.0000
12350.0000 0.0006
12360.0000 0.0003
12370.0000 0.0000
12380.0000 0.0002
12390.0000 0.0002
12400.0000 0.0000
12410.0000 0.0000
12420.0000 0.0000
12430.0000 0.0000
12440.0000 0.0001
12450.0000 0.0000
12460.0000 0.0006
12470.0000 0.0004
12480.0000 0.0000
12490.0000 0.0000
12500.0000 0.0001
12510.0000 0.0000
12520.0000 0.0008
12530.0000 0.0004
12540.0000 0.0000
12550.0000 0.0001
12560.0000 0.0001
12570.0000 0.0000
12580.0000 0.0000
12590.0000 0.0000
12600.0000 0.0000
12610.0000 0.0002
12620.0000 0.0000
12630.0000 0.0006
12640.0000 0.0004
12650.0000 0.0000
12660.0000 0.0002
12670.0000 0.0001
12680.0000 0.0000
12690.0000 0.0003
12700.0000 0.0000
12710.0000 0.0000
12720.0000 0.0003
12730.0000 0.0000
12740.0000 0.0006
12750.0000 0.0002
12760.0000 0.0000
12770.0000 0.0000
12780.0000 0.0004
12790.0000 0.0000
12800.0000 0.0003
12810.0000 0.0000
12820.0000 0.0000
12830.0000 0.0003
12840.0000 0.0000
12850.0000 0.0006
12860.0000 0.0004
12870.0000 0.0000
12880.0000 0.0000
12890.0000 0.0004
12900.0000 0.0000
12910.0000 0.0000
12920.0000 0.0000
12930.0000 0.0000
12940.0000 0.0003
12950.0000 0.0000
12960.0000 0.0007
12970.0000 0.0000
12980.0000 0.0000
12990.0000 0.0003
13000.0000 0.0004
13010.0000 0.0003
13020.0000 0.0002
13030.0000 0.0000
13040.0000 0.0000
13050.0000 0.0003
13060.0000 0.0000
13070.0000 0.0007
13080.0000 0.0001
13090.0000 0.0000
13100.0000 0.0004
13110.0000 0.0004
13120.0000 0.0006
13130.0000 0.0003
13140.0000 0.0000
13150.0000 0.0000
13160.0000 0.0002
13170.0000 0.0000
13180.0000 0.0006
13190.0000 0.0001
13200.0000 0.0000
13210.0000 0.0010
13220.0000 0.0006
13230.0000 0.0006
13240.0000 0.0002
13250.0000 0.0000
13260.0000 0.0001
13270.0000 0.0001
13280.0000 0.0004
13290.0000 0.0009
13300.0000 0.0011
13310.0000 0.0012
13320.0000 0.0019
13330.0000 0.0014
13340.0000 0.0012
13350.0000 0.0010
13360.0000 0.0010
13370.0000 0.0007
13380.0000 0.0005
13390.0000 0.0007
13400.0000 0.0009
13410.0000 0.0012
13420.0000 0.0006
13430.0000 0.0006
13440.0000 0.0010
13450.0000 0.0011
13460.0000 0.0012
13470.0000 0.0017
13480.0000 0.0013
13490.0000 0.0013
13500.0000 0.0020
13510.0000 0.0023
13520.0000 0.0024
13530.0000 0.0032
13540.0000 0.0033
13550.0000 0.0040
13560.0000 0.0053
13570.0000 0.0065
13580.0000 0.0085
13590.0000 0.0111
13600.0000 0.0131
13610.0000 0.0158
13620.0000 0.0191
13630.0000 0.0221
13640.0000 0.0256
13650.0000 0.0293
13660.0000 0.0318
13670.0000 0.0349
13680.0000 0.0382
13690.0000 0.0412
13700.0000 0.0443
13710.0000 0.0471
13720.0000 0.0486
13730.0000 0.0500
13740.0000 0.0512
13750.0000 0.0513
13760.0000 0.0510
13770.0000 0.0506
13780.0000 0.0487
13790.0000 0.0469
13800.0000 0.0451
13810.0000 0.0427
13820.0000 0.0401
13830.0000 0.0376
13840.0000 0.0340
13850.0000 0.0311
13860.0000 0.0285
13870.0000 0.0255
13880.0000 0.0230
13890.0000 0.0209
13900.0000 0.0180
13910.0000 0.0160
13920.0000 0.0145
13930.0000 0.0130
13940.0000 0.0121
13950.0000 0.0115
13960.0000 0.0104
13970.0000 0.0100
13980.0000 0.0099
13990.0000 0.0097
14000.0000 0.0100
14010.0000 0.0100
14020.0000 0.0096
14030.0000 0.0098
14040.0000 0.0104
14050.0000 0.0106
14060.0000 0.0111
14070.0000 0.0115
14080.0000 0.0114
14090.0000 0.0121
14100.0000 0.0130
14110.0000 0.0137
14120.0000 0.0148
14130.0000 0.0157
14140.0000 0.0162
14150.0000 0.0176
14160.0000 0.0192
14170.0000 0.0205
14180.0000 0.0223
14190.0000 0.0238
14200.0000 0.0250
14210.0000 0.0270
14220.0000 0.0290
14230.0000 0.0306
14240.0000 0.0327
14250.0000 0.0344
14260.0000 0.0356
14270.0000 0.0373
14280.0000 0.0388
14290.0000 0.0397
14300.0000 0.0411
14310.0000 0.0418
14320.0000 0.0420
14330.0000 0.0426
14340.0000 0.0428
14350.0000 0.0426
14360.0000 0.0425
14370.0000 0.0415
14380.0000 0.0402
14390.0000 0.0392
14400.0000 0.0381
14410.0000 0.0364
14420.0000 0.0353
14430.0000 0.0333
14440.0000 0.0310
14450.0000 0.0295
14460.0000 0.0280
14470.0000 0.0261
14480.0000 0.0248
14490.0000 0.0227
14500.0000 0.0209
14510.0000 0.0195
14520.0000 0.0182
14530.0000 0.0170
14540.0000 0.0162
14550.0000 0.0147
14560.0000 0.0135
14570.0000 0.0129
14580.0000 0.0121
14590.0000 0.0116
14600.0000 0.0116
14610.0000 0.0107
14620.0000 0.0097
14630.0000 0.0095
14640.0000 0.0091
14650.0000 0.0090
14660.0000 0.0091
14670.0000 0.0084
14680.0000 0.0080
14690.0000 0.0081
14700.0000 0.0076
14710.0000 0.0075
14720.0000 0.0076
14730.0000 0.0072
14740.0000 0.0068
14750.0000 0.0071
14760.0000 0.0067
14770.0000 0.0070
14780.0000 0.0073
14790.0000 0.0069
14800.0000 0.0065
14810.0000 0.0069
14820.0000 0.0068
14830.0000 0.0070
14840.0000 0.0072
14850.0000 0.0071
14860.0000 0.0070
14870.0000 0.0072
14880.0000 0.0071
14890.0000 0.0076
14900.0000 0.0078
14910.0000 0.0075
14920.0000 0.0075
14930.0000 0.0081
14940.0000 0.0076
14950.0000 0.0084
14960.0000 0.0086
14970.0000 0.0086
14980.0000 0.0088
14990.0000 0.0095
15000.0000 0.0093
15010.0000 0.0102
15020.0000 0.0104
15030.0000 0.0105
15040.0000 0.0109
15050.0000 0.0116
15060.0000 0.0115
15070.0000 0.0125
15080.0000 0.0128
15090.0000 0.0129
15100.0000 0.0136
15110.0000 0.0150
15120.0000 0.0144
15130.0000 0.0155
15140.0000 0.0161
15150.0000 0.0163
15160.0000 0.0167
15170.0000 0.0184
15180.0000 0.0180
15190.0000 0.0196
15200.0000 0.0197
15210.0000 0.0203
15220.0000 0.0207
15230.0000 0.0217
15240.0000 0.0212
15250.0000 0.0230
15260.0000 0.0230
15270.0000 0.0230
15280.0000 0.0234
15290.0000 0.0240
15300.0000 0.0238
15310.0000 0.0245
15320.0000 0.0235
15330.0000 0.0236
15340.0000 0.0243
15350.0000 0.0238
15360.0000 0.0239
15370.0000 0.0238
15380.0000 0.0229
15390.0000 0.0225
15400.0000 0.0224
15410.0000 0.0217
15420.0000 0.0216
15430.0000 0.0213
15440.0000 0.0199
15450.0000 0.0197
15460.0000 0.0197
15470.0000 0.0182
15480.0000 0.0182
15490.0000 0.0178
15500.0000 0.0166
15510.0000 0.0161
15520.0000 0.0160
15530.0000 0.0151
15540.0000 0.0150
15550.0000 0.0147
15560.0000 0.0137
15570.0000 0.0132
15580.0000 0.0133
15590.0000 0.0122
15600.0000 0.0124
15610.0000 0.0120
15620.0000 0.0113
15630.0000 0.0109
15640.0000 0.0110
15650.0000 0.0102
15660.0000 0.0104
15670.0000 0.0102
15680.0000 0.0096
15690.0000 0.0097
15700.0000 0.0096
15710.0000 0.0090
15720.0000 0.0094
15730.0000 0.0089
15740.0000 0.0086
15750.0000 0.0084
15760.0000 0.0088
15770.0000 0.0080
15780.0000 0.0084
15790.0000 0.0080
15800.0000 0.0077
15810.0000 0.0080
15820.0000 0.0082
15830.0000 0.0077
15840.0000 0.0081
15850.0000 0.0080
15860.0000 0.0075
15870.0000 0.0077
15880.0000 0.0080
15890.0000 0.0075
15900.0000 0.0079
15910.0000 0.0078
15920.0000 0.0074
15930.0000 0.0077
15940.0000 0.0079
15950.0000 0.0073
15960.0000 0.0079
15970.0000 0.0080
15980.0000 0.0077
15990.0000 0.0076
16000.0000 0.0077
16010.0000 0.0076
16020.0000 0.0079
16030.0000 0.0082
16040.0000 0.0080
16050.0000 0.0081
16060.0000 0.0081
16070.0000 0.0080
16080.0000 0.0087
16090.0000 0.0084
16100.0000 0.0082
16110.0000 0.0086
16120.0000 0.0090
16130.0000 0.0086
16140.0000 0.0091
16150.0000 0.0090
16160.0000 0.0090
16170.0000 0.0094
16180.0000 0.0096
16190.0000 0.0094
16200.0000 0.0100
16210.0000 0.0101
16220.0000 0.0102
16230.0000 0.0105
16240.0000 0.0107
16250.0000 0.0105
16260.0000 0.0110
16270.0000 0.0112
16280.0000 0.0113
16290.0000 0.0119
16300.0000 0.0124
16310.0000 0.0126
16320.0000 0.0130
16330.0000 0.0131
16340.0000 0.0135
16350.0000 0.0140
16360.0000 0.0139
16370.0000 0.0143
16380.0000 0.0151
16390.0000 0.0153
16400.0000 0.0156
16410.0000 0.0158
16420.0000 0.0161
16430.0000 0.0166
16440.0000 0.0173
16450.0000 0.0174
16460.0000 0.0178
16470.0000 0.0182
16480.0000 0.0183
16490.0000 0.0188
16500.0000 0.0193
16510.0000 0.0194
16520.0000 0.0198
16530.0000 0.0200
16540.0000 0.0201
16550.0000 0.0206
16560.0000 0.0208
16570.0000 0.0206
16580.0000 0.0208
16590.0000 0.0208
16600.0000 0.0209
16610.0000 0.0209
16620.0000 0.0207
16630.0000 0.0204
16640.0000 0.0202
16650.0000 0.0198
16660.0000 0.0193
16670.0000 0.0187
16680.0000 0.0184
16690.0000 0.0174
16700.0000 0.0169
16710.0000 0.0173
16720.0000 0.0173
16730.0000 0.0162
16740.0000 0.0156
16750.0000 0.0145
16760.0000 0.0133
16770.0000 0.0138
16780.0000 0.0136
16790.0000 0.0122
16800.0000 0.0112
16810.0000 0.0103
16820.0000 0.0096
16830.0000 0.0106
16840.0000 0.0104
16850.0000 0.0087
16860.0000 0.0077
16870.0000 0.0064
16880.0000 0.0052
16890.0000 0.0067
16900.0000 0.0069
16910.0000 0.0053
16920.0000 0.0049
16930.0000 0.0039
16940.0000 0.0031
16950.0000 0.0047
16960.0000 0.0046
16970.0000 0.0030
16980.0000 0.0027
16990.0000 0.0022
17000.0000 0.0017
17010.0000 0.0035
17020.0000 0.0034
17030.0000 0.0016
17040.0000 0.0017
17050.0000 0.0013
17060.0000 0.0008
17070.0000 0.0023
17080.0000 0.0020
17090.0000 0.0011
17100.0000 0.0014
17110.0000 0.0003
17120.0000 0.0000
17130.0000 0.0015
17140.0000 0.0020
17150.0000 0.0009
17160.0000 0.0013
17170.0000 0.0003
17180.0000 0.0000
17190.0000 0.0016
17200.0000 0.0019
17210.0000 0.0008
17220.0000 0.0009
17230.0000 0.0000
17240.0000 0.0000
17250.0000 0.0020
17260.0000 0.0020
17270.0000 0.0005
17280.0000 0.0008
17290.0000 0.0000
17300.0000 -0.0010
17310.0000 0.0012
17320.0000 0.0018
17330.0000 0.0009
17340.0000 0.0006
17350.0000 0.0001
17360.0000 0.0002
17370.0000 0.0020
17380.0000 0.0011
17390.0000 0.0007
17400.0000 0.0000
17410.0000 -0.0010
17420.0000 0.0000
17430.0000 0.0014
17440.0000 0.0007
17450.0000 0.0002
17460.0000 0.0004
17470.0000 0.0000
17480.0000 0.0000
17490.0000 0.0018
17500.0000 0.0005
17510.0000 0.0001
17520.0000 0.0001
17530.0000 -0.0010
17540.0000 0.0005
17550.0000 0.0016
17560.0000 0.0005
17570.0000 0.0004
17580.0000 0.0003
17590.0000 0.0000
17600.0000 0.0000
17610.0000 0.0018
17620.0000 0.0000
17630.0000 0.0008
17640.0000 0.0006
17650.0000 0.0000
17660.0000 0.0003
17670.0000 0.0013
17680.0000 0.0002
17690.0000 0.0000
17700.0000 0.0000
17710.0000 -0.0010
17720.0000 0.0006
17730.0000 0.0004
17740.0000 0.0000
17750.0000 0.0006
17760.0000 0.0000
17770.0000 0.0000
17780.0000 0.0017
17790.0000 0.0009
17800.0000 0.0014
17810.0000 0.0000
17820.0000 -0.0010
17830.0000 0.0000
17840.0000 0.0017
17850.0000 0.0004
17860.0000 0.0004
17870.0000 0.0000
17880.0000 -0.0010
17890.0000 0.0000
17900.0000 0.0016
17910.0000 0.0000
17920.0000 0.0001
17930.0000 0.0000
17940.0000 -0.0010
17950.0000 0.0001
17960.0000 0.0014
17970.0000 0.0001
17980.0000 0.0003
17990.0000 0.0001
18000.0000 -0.0010
18010.0000 0.0005
18020.0000 0.0015
18030.0000 0.0005
18040.0000 0.0001
18050.0000 0.0000
18060.0000 -0.0010
18070.0000 0.0005
18080.0000 0.0016
18090.0000 0.0000
18100.0000 0.0000
18110.0000 0.0000
18120.0000 -0.0010
18130.0000 0.0003
18140.0000 0.0009
18150.0000 0.0002
18160.0000 0.0002
18170.0000 0.0003
18180.0000 0.0000
18190.0000 0.0001
18200.0000 0.0010
18210.0000 0.0001
18220.0000 0.0005
18230.0000 0.0000
18240.0000 -0.0010
18250.0000 0.0002
18260.0000 0.0010
18270.0000 0.0000
18280.0000 0.0001
18290.0000 0.0000
18300.0000 -0.0010
18310.0000 0.0009
18320.0000 0.0016
18330.0000 0.0001
18340.0000 0.0004
18350.0000 0.0000
18360.0000 -0.0010
18370.0000 0.0007
18380.0000 0.0013
18390.0000 0.0000
18400.0000 0.0003
18410.0000 0.0000
18420.0000 -0.0010
18430.0000 0.0010
18440.0000 0.0008
18450.0000 0.0000
18460.0000 0.0000
18470.0000 0.0000
18480.0000 0.0000
18490.0000 0.0013
18500.0000 0.0016
18510.0000 0.0002
18520.0000 0.0000
18530.0000 -0.0010
18540.0000 -0.0010
18550.0000 0.0001
18560.0000 0.0017
18570.0000 0.0002
18580.0000 0.0000
18590.0000 0.0000
18600.0000 -0.0010
18610.0000 0.0006
18620.0000 0.0018
18630.0000 0.0001
18640.0000 0.0000
18650.0000 -0.0010
18660.0000 0.0000
18670.0000 0.0007
18680.0000 0.0019
18690.0000 0.0007
18700.0000 0.0002
18710.0000 -0.0010
18720.0000 -0.0010
18730.0000 0.0002
18740.0000 0.0011
18750.0000 0.0000
18760.0000 0.0000
18770.0000 -0.0010
18780.0000 -0.0010
18790.0000 0.0001
18800.0000 0.0014
18810.0000 0.0003
18820.0000 0.0000
18830.0000 -0.0010
18840.0000 -0.0010
18850.0000 0.0004
18860.0000 0.0016
18870.0000 0.0002
18880.0000 0.0000
18890.0000 0.0000
18900.0000 -0.0010
18910.0000 0.0004
18920.0000 0.0020
18930.0000 0.0007
18940.0000 0.0000
18950.0000 0.0000
18960.0000 -0.0010
18970.0000 0.0008
18980.0000 0.0016
18990.0000 0.0000
19000.0000 0.0000
19010.0000 0.0000
19020.0000 -0.0010
19030.0000 0.0002
19040.0000 0.0022
19050.0000 0.0014
19060.0000 0.0009
19070.0000 0.0000
19080.0000 -0.0010
19090.0000 0.0000
19100.0000 0.0022
19110.0000 0.0012
19120.0000 0.0001
19130.0000 0.0000
19140.0000 -0.0020
19150.0000 0.0000
19160.0000 0.0020
19170.0000 0.0002
19180.0000 0.0000
19190.0000 0.0000
19200.0000 -0.0010
19210.0000 0.0011
19220.0000 0.0023
19230.0000 0.0012
19240.0000 0.0003
19250.0000 0.0000
19260.0000 -0.0010
19270.0000 0.0010
19280.0000 0.0029
19290.0000 0.0014
19300.0000 0.0003
19310.0000 -0.0010
19320.0000 -0.0010
19330.0000 0.0018
19340.0000 0.0017
19350.0000 0.0000
19360.0000 -0.0010
19370.0000 -0.0020
19380.0000 -0.0010
19390.0000 0.0018
19400.0000 0.0018
19410.0000 0.0006
19420.0000 -0.0010
19430.0000 -0.0020
19440.0000 -0.0010
19450.0000 0.0022
19460.0000 0.0021
19470.0000 0.0006
19480.0000 0.0000
19490.0000 -0.0010
19500.0000 -0.0010
19510.0000 0.0019
19520.0000 0.0019
19530.0000 0.0004
19540.0000 -0.0010
19550.0000 -0.0010
19560.0000 -0.0010
19570.0000 0.0021
19580.0000 0.0013
19590.0000 0.0009
19600.0000 -0.0010
19610.0000 -0.0010
19620.0000 -0.0010
19630.0000 0.0008
19640.0000 0.0010
19650.0000 0.0000
19660.0000 -0.0020
19670.0000 -0.0010
19680.0000 0.0000
19690.0000 0.0016
19700.0000 0.0000
19710.0000 0.0001
19720.0000 0.0000
19730.0000 0.0000
19740.0000 0.0000
19750.0000 0.0015
19760.0000 0.0000
19770.0000 0.0000
19780.0000 -0.0010
19790.0000 -0.0010
19800.0000 0.0000
19810.0000 0.0014
19820.0000 0.0000
19830.0000 0.0005
19840.0000 0.0000
19850.0000 -0.0010
19860.0000 0.0003
19870.0000 0.0023
19880.0000 0.0003
19890.0000 0.0000
19900.0000 0.0000
19910.0000 -0.0010
19920.0000 0.0000
19930.0000 0.0016
19940.0000 0.0002
19950.0000 0.0003
19960.0000 0.0000
19970.0000 -0.0010
19980.0000 0.0013
19990.0000 0.0010
20000.0000 0.0000
20010.0000 0.0004
20020.0000 0.0000
20030.0000 0.0000
20040.0000 0.0005
20050.0000 0.0004
20060.0000 -0.0010
20070.0000 0.0000
20080.0000 0.0000
20090.0000 -0.0010
20100.0000 0.0017
20110.0000 0.0013
20120.0000 0.0000
20130.0000 0.0000
20140.0000 -0.0020
20150.0000 -0.0010
20160.0000 0.0022
20170.0000 0.0004
20180.0000 0.0003
20190.0000 0.0000
20200.0000 -0.0010
20210.0000 0.0000
20220.0000 0.0018
20230.0000 0.0001
20240.0000 0.0007
20250.0000 0.0000
20260.0000 -0.0020
20270.0000 0.0000
20280.0000 0.0017
20290.0000 0.0001
20300.0000 0.0000
20310.0000 0.0000
20320.0000 -0.0010
20330.0000 0.0000
20340.0000 0.0014
20350.0000 0.0000
20360.0000 0.0000
20370.0000 0.0000
20380.0000 -0.0010
20390.0000 0.0004
20400.0000 0.0017
20410.0000 0.0000
20420.0000 0.0000
20430.0000 0.0000
20440.0000 -0.0010
20450.0000 0.0006
20460.0000 0.0010
20470.0000 0.0000
20480.0000 0.0000
20490.0000 0.0004
20500.0000 -0.0010
20510.0000 0.0002
20520.0000 0.0012
20530.0000 0.0002
20540.0000 0.0004
20550.0000 0.0000
20560.0000 -0.0020
20570.0000 0.0001
20580.0000 0.0020
20590.0000 0.0005
20600.0000 0.0004
20610.0000 0.0000
20620.0000 -0.0010
20630.0000 0.0000
20640.0000 0.0013
20650.0000 0.0000
20660.0000 0.0000
20670.0000 0.0000
20680.0000 0.0000
20690.0000 0.0009
20700.0000 0.0014
20710.0000 0.0000
20720.0000 0.0000
20730.0000 0.0000
20740.0000 -0.0010
20750.0000 0.0005
20760.0000 0.0012
20770.0000 0.0000
20780.0000 0.0000
20790.0000 0.0000
20800.0000 -0.0010
20810.0000 0.0003
20820.0000 0.0019
20830.0000 0.0005
20840.0000 0.0003
20850.0000 0.0000
20860.0000 -0.0010
20870.0000 0.0000
20880.0000 0.0014
20890.0000 0.0006
20900.0000 0.0003
20910.0000 0.0000
20920.0000 -0.0010
20930.0000 0.0005
20940.0000 0.0009
20950.0000 0.0000
20960.0000 0.0004
20970.0000 -0.0010
20980.0000 -0.0010
20990.0000 0.0006
21000.0000 0.0011
21010.0000 0.0000
21020.0000 0.0000
21030.0000 0.0000
21040.0000 -0.0010
21050.0000 0.0010
21060.0000 0.0019
21070.0000 0.0004
21080.0000 0.0000
21090.0000 -0.0010
21100.0000 -0.0010
21110.0000 0.0007
21120.0000 0.0014
21130.0000 0.0000
21140.0000 0.0000
21150.0000 -0.0010
21160.0000 -0.0010
21170.0000 0.0009
21180.0000 0.0017
21190.0000 0.0005
21200.0000 0.0000
21210.0000 -0.0010
21220.0000 -0.0010
21230.0000 0.0006
21240.0000 0.0009
21250.0000 0.0003
21260.0000 0.0009
21270.0000 0.0000
21280.0000 0.0000
21290.0000 0.0012
21300.0000 0.0012
21310.0000 0.0000
21320.0000 0.0002
21330.0000 0.0000
21340.0000 -0.0010
21350.0000 0.0013
21360.0000 0.0015
21370.0000 0.0004
21380.0000 0.0003
21390.0000 -0.0010
21400.0000 -0.0010
21410.0000 0.0014
21420.0000 0.0010
21430.0000 0.0000
21440.0000 0.0001
21450.0000 -0.0010
21460.0000 -0.0010
21470.0000 0.0013
21480.0000 0.0015
21490.0000 0.0004
21500.0000 0.0000
21510.0000 -0.0010
21520.0000 -0.0010
21530.0000 0.0004
21540.0000 0.0002
21550.0000 0.0000
21560.0000 0.0000
21570.0000 -0.0010
21580.0000 -0.0010
21590.0000 0.0013
21600.0000 0.0008
21610.0000 0.0004
21620.0000 0.0001
21630.0000 -0.0010
21640.0000 0.0000
21650.0000 0.0026
21660.0000 0.0017
21670.0000 0.0001
21680.0000 0.0000
21690.0000 -0.0020
21700.0000 -0.0010
21710.0000 0.0016
21720.0000 0.0013
21730.0000 0.0009
21740.0000 0.0004
21750.0000 -0.0010
21760.0000 -0.0010
21770.0000 0.0024
21780.0000 0.0013
21790.0000 0.0011
21800.0000 0.0006
21810.0000 -0.0010
21820.0000 0.0000
21830.0000 0.0019
21840.0000 0.0006
21850.0000 0.0000
21860.0000 -0.0010
21870.0000 -0.0010
21880.0000 0.0000
21890.0000 0.0021
21900.0000 0.0010
21910.0000 0.0007
21920.0000 0.0001
21930.0000 -0.0010
21940.0000 0.0005
21950.0000 0.0025
21960.0000 0.0012
21970.0000 0.0018
21980.0000 0.0000
21990.0000 -0.0020
22000.0000 0.0000
22010.0000 0.0033
22020.0000 0.0018
22030.0000 -0.0010
22040.0000 0.0011
22050.0000 -0.0010
22060.0000 0.0000
22070.0000 0.0028
22080.0000 0.0002
22090.0000 0.0000
22100.0000 0.0009
22110.0000 -0.0030
22120.0000 -0.0010
22130.0000 0.0019
22140.0000 0.0018
22150.0000 0.0007
22160.0000 0.0008
22170.0000 -0.0040
22180.0000 0.0000
22190.0000 0.0026
22200.0000 0.0018
22210.0000 0.0000
22220.0000 0.0005
22230.0000 -0.0040
22240.0000 -0.0010
22250.0000 0.0030
22260.0000 0.0013
22270.0000 0.0000
22280.0000 0.0019
22290.0000 -0.0030
22300.0000 0.0000
22310.0000 0.0037
22320.0000 0.0017
22330.0000 -0.0010
22340.0000 0.0020
22350.0000 -0.0030
22360.0000 0.0000
22370.0000 0.0026
22380.0000 0.0023
22390.0000 0.0000
22400.0000 0.0018
22410.0000 -0.0030
22420.0000 -0.0010
22430.0000 0.0022
22440.0000 0.0005
22450.0000 -0.0010
22460.0000 0.0003
22470.0000 -0.0040
22480.0000 -0.0010
22490.0000 0.0024
22500.0000 0.0011
22510.0000 0.0012
22520.0000 0.0028
22530.0000 -0.0030
22540.0000 0.0017
22550.0000 0.0008
22560.0000 -0.0020
22570.0000 0.0001
22580.0000 -0.0020
22590.0000 -0.0010
22600.0000 0.0033
22610.0000 0.0022
22620.0000 0.0000
22630.0000 0.0012
22640.0000 -0.0010
22650.0000 -0.0010
22660.0000 0.0034
22670.0000 0.0034
22680.0000 -0.0010
22690.0000 0.0019
22700.0000 0.0000
22710.0000 -0.0010
22720.0000 0.0038
22730.0000 0.0010
22740.0000 -0.0020
22750.0000 0.0002
22760.0000 -0.0030
22770.0000 -0.0040
22780.0000 0.0022
22790.0000 0.0014
22800.0000 -0.0010
22810.0000 0.0010
22820.0000 -0.0010
22830.0000 -0.0050
22840.0000 0.0013
22850.0000 0.0000
22860.0000 -0.0020
22870.0000 0.0012
22880.0000 -0.0030
22890.0000 -0.0030
22900.0000 0.0034
22910.0000 0.0024
22920.0000 -0.0010
22930.0000 0.0029
22940.0000 0.0000
22950.0000 -0.0010
22960.0000 0.0039
22970.0000 0.0006
22980.0000 0.0000
22990.0000 0.0013
23000.0000 -0.0030
23010.0000 -0.0020
23020.0000 0.0038
23030.0000 0.0014
23040.0000 -0.0020
23050.0000 0.0012
23060.0000 -0.0030
23070.0000 -0.0010
23080.0000 0.0040
23090.0000 0.0015
23100.0000 0.0000
23110.0000 0.0016
23120.0000 -0.0030
23130.0000 -0.0030
23140.0000 0.0034
23150.0000 0.0018
23160.0000 -0.0010
23170.0000 0.0006
23180.0000 -0.0040
23190.0000 -0.0020
23200.0000 0.0025
23210.0000 0.0005
23220.0000 0.0000
23230.0000 0.0024
23240.0000 -0.0010
23250.0000 0.0000
23260.0000 0.0029
23270.0000 0.0017
23280.0000 -0.0010
23290.0000 0.0004
23300.0000 -0.0010
23310.0000 0.0005
23320.0000 0.0046
23330.0000 0.0008
23340.0000 -0.0020
23350.0000 0.0000
23360.0000 -0.0030
23370.0000 -0.0010
23380.0000 0.0033
23390.0000 0.0002
23400.0000 -0.0020
23410.0000 -0.0010
23420.0000 -0.0020
23430.0000 0.0000
23440.0000 0.0044
23450.0000 0.0024
23460.0000 -0.0010
23470.0000 0.0000
23480.0000 -0.0040
23490.0000 -0.0010
23500.0000 0.0034
23510.0000 0.0000
23520.0000 -0.0010
23530.0000 0.0004
23540.0000 -0.0010
23550.0000 0.0000
23560.0000 0.0033
23570.0000 0.0009
23580.0000 0.0003
23590.0000 0.0002
23600.0000 -0.0040
23610.0000 0.0000
23620.0000 0.0044
23630.0000 0.0000
23640.0000 0.0003
23650.0000 0.0010
23660.0000 -0.0020
23670.0000 0.0000
23680.0000 0.0038
23690.0000 0.0007
23700.0000 0.0000
23710.0000 0.0001
23720.0000 -0.0030
23730.0000 0.0004
23740.0000 0.0050
23750.0000 0.0011
23760.0000 0.0000
23770.0000 -0.0010
23780.0000 -0.0040
23790.0000 0.0000
23800.0000 0.0053
23810.0000 0.0014
23820.0000 0.0000
23830.0000 0.0003
23840.0000 -0.0020
23850.0000 0.0008
23860.0000 0.0022
23870.0000 -0.0020
23880.0000 0.0005
23890.0000 0.0013
23900.0000 -0.0010
23910.0000 0.0022
23920.0000 0.0047
23930.0000 0.0006
23940.0000 0.0017
23950.0000 0.0004
23960.0000 -0.0030
23970.0000 0.0000
23980.0000 0.0021
23990.0000 -0.0020
24000.0000 0.0000
24010.0000 0.0004
24020.0000 -0.0030
24030.0000 0.0000
24040.0000 0.0034
24050.0000 -0.0020
24060.0000 -0.0010
24070.0000 0.0004
24080.0000 -0.0020
24090.0000 0.0017
24100.0000 0.0018
24110.0000 -0.0040
24120.0000 -0.0010
24130.0000 -0.0010
24140.0000 -0.0050
24150.0000 0.0011
24160.0000 0.0057
24170.0000 -0.0010
24180.0000 0.0006
24190.0000 -0.0020
24200.0000 -0.0030
24210.0000 0.0035
24220.0000 0.0037
24230.0000 -0.0030
24240.0000 0.0000
24250.0000 -0.0020
24260.0000 -0.0050
24270.0000 0.0012
24280.0000 0.0058
24290.0000 0.0005
24300.0000 0.0035
24310.0000 -0.0010
24320.0000 -0.0050
24330.0000 0.0030
24340.0000 0.0038
24350.0000 -0.0010
24360.0000 0.0010
24370.0000 -0.0020
24380.0000 -0.0060
24390.0000 0.0046
24400.0000 0.0045
24410.0000 -0.0020
24420.0000 0.0000
24430.0000 -0.0030
24440.0000 -0.0050
24450.0000 0.0024
24460.0000 0.0046
24470.0000 -0.0020
24480.0000 -0.0020
24490.0000 0.0003
24500.0000 -0.0050
24510.0000 0.0031
24520.0000 0.0045
24530.0000 -0.0050
24540.0000 -0.0020
24550.0000 -0.0010
24560.0000 -0.0120
24570.0000 -0.0010
24580.0000 0.0045
24590.0000 -0.0010
24600.0000 -0.0010
24610.0000 -0.0020
24620.0000 -0.0080
24630.0000 0.0051
24640.0000 0.0058
24650.0000 -0.0020
24660.0000 -0.0020
24670.0000 0.0016
24680.0000 -0.0040
24690.0000 0.0029
24700.0000 0.0025
24710.0000 0.0038
24720.0000 0.0020
24730.0000 0.0012
24740.0000 -0.0050
24750.0000 -0.0010
24760.0000 0.0000
24770.0000 -0.0020
24780.0000 -0.0060
24790.0000 -0.0050
24800.0000 -0.0100
24810.0000 0.0028
24820.0000 0.0029
24830.0000 0.0028
24840.0000 -0.0010
24850.0000 -0.0010
24860.0000 -0.0020
24870.0000 0.0025
24880.0000 0.0015
24890.0000 0.0019
24900.0000 -0.0040
24910.0000 -0.0030
24920.0000 -0.0030
24930.0000 -0.0040
24940.0000 -0.0040
24950.0000 -0.0010
24960.0000 -0.0050
24970.0000 0.0000
24980.0000 -0.0020
24990.0000 0.0001
25000.0000 -0.0010
25012.5000 -0.0217
25025.0000 -0.0362
25037.6000 0.0631
25050.1000 -0.0290
25062.7000 0.0054
25075.2000 -0.0162
25087.8000 0.0855
25100.4000 0.0238
25113.0000 -0.0149
25125.6000 -0.0033
25138.3000 0.1324
25150.9000 0.0492
25163.6000 -0.0412
25176.2000 -0.0371
25188.9000 0.0750
25201.6000 0.0218
25214.3000 -0.1098
25227.0000 0.0891
25239.8000 0.0723
25252.5000 0.0669
25265.3000 0.0205
25278.1000 0.1209
25290.8000 0.0323
25303.6000 0.0295
25316.5000 -0.0111
25329.3000 0.0759
25342.1000 0.0077
25355.0000 0.0484
25367.8000 -0.0286
25380.7000 0.0860
25393.6000 0.1759
25406.5000 0.0322
25419.4000 -0.0454
25432.3000 0.0344
25445.3000 0.0570
25458.2000 0.0973
25471.2000 -0.0825
25484.2000 0.0238
25497.2000 -0.0805
25510.2000 0.0153
25523.2000 -0.0137
25536.3000 -0.0795
25549.3000 0.0777
25562.4000 -0.0780
25575.4000 -0.0647
25588.5000 -0.0329
25601.6000 -0.0107
25614.8000 -0.0468
25627.9000 0.0459
25641.0000 0.0047
25654.2000 0.0630
25667.4000 -0.0495
25680.5000 -0.0222
25693.7000 -0.0015
25706.9000 0.0941
25720.2000 0.0290
25733.4000 0.0935
25746.7000 0.0148
25759.9000 0.0490
25773.2000 0.0041
25786.5000 0.0319
25799.8000 0.0135
25813.1000 0.0316
25826.4000 -0.0004
25839.8000 0.2087
25853.2000 0.0511
25866.5000 0.0638
25879.9000 0.1071
25893.3000 0.1120
25906.7000 0.0621
25920.2000 0.0575
25933.6000 0.1250
25947.1000 0.1209
25960.5000 0.1188
25974.0000 -0.0708
25987.5000 -0.0095
26001.0000 -0.0197
26014.6000 -0.0203
26028.1000 0.0206
26041.7000 0.0202
26055.2000 -0.0541
26068.8000 -0.0617
26082.4000 0.0350
26096.0000 0.1580
26109.7000 0.0981
26123.3000 -0.0051
26137.0000 -0.0353
26150.6000 0.0687
26164.3000 0.1432
26178.0000 0.0125
26191.7000 -0.1379
26205.5000 0.1522
26219.2000 -0.0149
26232.9000 -0.0526
26246.7000 -0.0083
26260.5000 0.0285
26274.3000 0.0278
26288.1000 0.0374
26301.9000 0.0533
26315.8000 -0.0212
26329.6000 -0.0832
26343.5000 0.0928
26357.4000 -0.0226
26371.3000 0.0133
26385.2000 -0.0012
26399.2000 0.0332
26413.1000 -0.0191
26427.1000 0.0002
26441.0000 0.0716
26455.0000 -0.0310
26469.0000 0.1021
26483.1000 -0.0557
26497.1000 0.0300
26511.1000 -0.0129
26525.2000 -0.0181
26539.3000 -0.0642
26553.4000 0.0416
26567.5000 0.0527
26581.6000 -0.0151
26595.7000 -0.0232
26609.9000 0.1743
26624.1000 -0.0496
26638.3000 -0.0031
26652.5000 0.0395
26666.7000 0.0206
26680.9000 -0.0470
26695.1000 0.0760
26709.4000 0.0527
26723.7000 0.0414
26738.0000 -0.0100
26752.3000 -0.0027
26766.6000 -0.0203
26780.9000 -0.0073
26795.3000 0.0042
26809.7000 0.0051
26824.0000 0.0056
26838.4000 0.0131
26852.8000 -0.0249
26867.3000 0.0251
26881.7000 -0.0462
26896.2000 0.0105
26910.7000 -0.0174
26925.1000 -0.0031
26939.7000 0.0390
26954.2000 0.0038
26968.7000 -0.0108
26983.3000 0.1092
26997.8000 0.0937
27012.4000 0.1327
27027.0000 -0.0633
27041.6000 -0.0087
27056.3000 0.0004
27070.9000 0.0330
27085.6000 -0.0445
27100.3000 0.0159
27115.0000 0.1229
27129.7000 0.0057
27144.4000 -0.0594
27159.2000 0.0503
27173.9000 0.0022
27188.7000 -0.0132
27203.5000 0.1842
27218.3000 -0.0366
27233.1000 0.0718
27248.0000 0.0124
27262.8000 0.0606
27277.7000 -0.0349
27292.6000 -0.0155
27307.5000 -0.0006
27322.4000 0.0708
27337.3000 0.0277
27352.3000 0.0382
27367.3000 0.0931
27382.3000 -0.0252
27397.3000 -0.0162
27412.3000 0.0823
27427.3000 -0.0705
27442.4000 -0.0350
27457.4000 -0.0295
27472.5000 -0.0703
27487.6000 0.0064
27502.8000 0.0787
27517.9000 0.0201
27533.0000 0.0284
27548.2000 0.0969
27563.4000 0.1511
27578.6000 0.0921
27593.8000 0.0107
27609.1000 0.0004
27624.3000 0.0004
27639.6000 -0.1554
27654.9000 0.0018
27670.2000 -0.0066
27685.5000 -0.0242
27700.8000 0.0281
27716.2000 0.0807
27731.6000 0.0540
27746.9000 -0.0266
27762.4000 0.0133
27777.8000 -0.0418
27793.2000 0.0432
27808.7000 -0.0170
27824.2000 -0.0740
27839.6000 0.0606
27855.2000 0.0346
27870.7000 -0.0257
27886.2000 0.0551
27901.8000 0.0795
27917.4000 0.1723
27933.0000 0.0550
27948.6000 -0.0336
27964.2000 0.0707
27979.9000 -0.0063
27995.5000 -0.0427
28011.2000 -0.0820
28026.9000 0.0095
28042.6000 0.1116
28058.4000 -0.0231
28074.1000 0.1201
28089.9000 -0.0006
28105.7000 0.0351
28121.5000 0.0657
28137.3000 -0.0453
28153.2000 0.0285
28169.0000 -0.0492
28184.9000 0.0430
28200.8000 -0.0173
28216.7000 -0.0905
28232.6000 0.0049
28248.6000 0.0505
28264.6000 -0.0211
28280.5000 0.0041
28296.5000 0.0145
28312.6000 0.0746
28328.6000 -0.0045
28344.7000 0.0893
28360.7000 -0.0408
28376.8000 -0.0889
28393.0000 0.0460
28409.1000 -0.0090
28425.2000 0.0641
28441.4000 -0.0482
28457.6000 -0.0640
28473.8000 -0.1216
28490.0000 0.0826
28506.3000 -0.0335
28522.5000 -0.1567
28538.8000 0.0090
28555.1000 0.0361
28571.4000 0.0381
28587.8000 0.0576
28604.1000 -0.0228
28620.5000 0.0621
28636.9000 0.0268
28653.3000 -0.0447
28669.7000 0.0274
28686.2000 0.0561
28702.6000 0.0586
28719.1000 0.0453
28735.6000 -0.0268
28752.2000 0.1135
28768.7000 0.0819
28785.3000 0.0498
28801.8000 0.0629
28818.4000 -0.0137
28835.1000 -0.0616
28851.7000 0.0175
28868.4000 0.0546
28885.0000 0.1017
28901.7000 0.0034
28918.4000 -0.0124
28935.2000 0.0530
28951.9000 0.0657
28968.7000 0.0575
28985.5000 0.0753
29002.3000 0.0262
29019.2000 0.0156
29036.0000 0.0730
29052.9000 0.0994
29069.8000 0.1014
29086.7000 -0.0239
29103.6000 0.1345
29120.6000 0.0441
29137.5000 0.0366
29154.5000 0.0605
29171.5000 0.1244
29188.6000 -0.0622
29205.6000 0.0016
29222.7000 -0.0103
29239.8000 -0.0396
29256.9000 0.0528
29274.0000 0.0215
29291.2000 0.0085
29308.3000 0.0268
29325.5000 0.0533
29342.7000 0.0269
29360.0000 0.0482
29377.2000 0.0134
29394.5000 0.0214
29411.8000 0.1061
29429.1000 0.0449
29446.4000 0.0180
29463.8000 0.0533
29481.1000 0.0123
29498.5000 0.0365
29515.9000 0.0282
29533.4000 0.0531
29550.8000 0.0122
29568.3000 0.0389
29585.8000 0.0767
29603.3000 0.0401
29620.9000 -0.0849
29638.4000 -0.0499
29656.0000 -0.0266
29673.6000 0.0208
29691.2000 0.0500
29708.9000 0.0279
29726.5000 0.1214
29744.2000 0.0183
29761.9000 -0.0953
29779.6000 0.0868
29797.4000 0.0324
29815.1000 0.0756
29832.9000 -0.0458
29850.7000 0.0034
29868.6000 0.0770
29886.4000 -0.0323
29904.3000 0.0294
29922.2000 0.1070
29940.1000 -0.0793
29958.1000 0.0984
29976.0000 -0.0258
29994.0000 0.0422
30012.0000 0.0530
30030.0000 0.0887
30048.1000 0.0227
30066.1000 0.0043
30084.2000 0.0156
30102.3000 0.0492
30120.5000 0.0570
30138.6000 -0.0250
30156.8000 0.0361
30175.0000 0.0362
30193.2000 0.0708
30211.5000 0.0596
30229.7000 0.0898
30248.0000 0.0089
30266.3000 0.0804
30284.7000 0.0427
30303.0000 0.0384
30321.4000 0.0269
30339.8000 0.0036
30358.2000 0.0240
30376.7000 0.1052
30395.1000 0.1618
30413.6000 0.0846
30432.1000 0.2219
30450.7000 0.1548
30469.2000 0.1634
30487.8000 0.1120
30506.4000 0.2243
30525.0000 0.2614
30543.7000 0.3030
30562.3000 0.2839
30581.0000 0.3614
30599.8000 0.3247
30618.5000 0.3930
30637.3000 0.5807
30656.0000 0.6845
30674.8000 0.6408
30693.7000 0.8904
30712.5000 0.9322
30731.4000 1.0029
30750.3000 1.1855
30769.2000 1.3794
30788.2000 1.4288
30807.1000 1.6104
30826.1000 1.8342
30845.2000 1.8608
30864.2000 1.8120
30883.3000 1.8673
30902.3000 1.9380
30921.5000 1.8122
30940.6000 1.7829
30959.8000 1.7515
30978.9000 1.6005
30998.1000 1.4870
31017.4000 1.4745
31036.6000 1.1920
31055.9000 1.2323
31075.2000 1.1432
31094.5000 1.0613
31113.9000 0.9018
31133.3000 0.9724
31152.6000 0.8416
31172.1000 0.8632
31191.5000 0.6868
31211.0000 0.7381
31230.5000 0.7619
31250.0000 0.7609
31269.5000 0.6325
31289.1000 0.6883
31308.7000 0.6075
31328.3000 0.6278
31348.0000 0.6259
31367.6000 0.5419
31387.3000 0.6052
31407.0000 0.5828
31426.8000 0.4870
31446.5000 0.5790
31466.3000 0.5220
31486.1000 0.4649
31506.0000 0.4484
31525.9000 0.5178
31545.7000 0.3545
31565.7000 0.4950
31585.6000 0.3763
31605.6000 0.4303
31625.6000 0.4697
31645.6000 0.3846
31665.6000 0.3865
31685.7000 0.2870
31705.8000 0.4456
31725.9000 0.3530
31746.0000 0.3939
31766.2000 0.4136
31786.4000 0.3871
31806.6000 0.2475
31826.9000 0.2897
31847.1000 0.3844
31867.4000 0.3204
31887.8000 0.2003
31908.1000 0.3187
31928.5000 0.1965
31948.9000 0.3000
31969.3000 0.2873
31989.8000 0.2694
32010.2000 0.2557
